Project5 Dipole-Dipole_1
    5.00000
11
3
Type of resistivity data (1=resistance,0=resistivity)
0
1342
2
0
4     15.000      2.000     10.000      1.130      0.000      0.000      5.000      0.500    547.7841 
4     20.000      2.590     15.000      2.000      5.000      0.500     10.000      1.130    580.6691 
4     25.000      3.850     20.000      2.590     10.000      1.130     15.000      2.000    720.4376 
4     30.000      4.780     25.000      3.850     15.000      2.000     20.000      2.590    833.8035 
4     35.000      5.500     30.000      4.780     20.000      2.590     25.000      3.850    967.6702 
4     40.000      6.260     35.000      5.500     25.000      3.850     30.000      4.780    809.3792 
4     45.000      6.940     40.000      6.260     30.000      4.780     35.000      5.500    743.5717 
4     50.000      7.720     45.000      6.940     35.000      5.500     40.000      6.260    537.4527 
4     55.000      8.140     50.000      7.720     40.000      6.260     45.000      6.940    667.1782 
4     60.000      8.510     55.000      8.140     45.000      6.940     50.000      7.720    823.8029 
4     65.000      8.950     60.000      8.510     50.000      7.720     55.000      8.140    638.3854 
4     70.000      9.310     65.000      8.950     55.000      8.140     60.000      8.510    576.5825 
4     75.000      9.720     70.000      9.310     60.000      8.510     65.000      8.950    542.2348 
4     80.000     10.270     75.000      9.720     65.000      8.950     70.000      9.310    714.4858 
4     85.000     10.830     80.000     10.270     70.000      9.310     75.000      9.720    672.8349 
4     90.000     11.390     85.000     10.830     75.000      9.720     80.000     10.270    680.0420 
4     95.000     11.930     90.000     11.390     80.000     10.270     85.000     10.830    567.4291 
4    100.000     12.400     95.000     11.930     85.000     10.830     90.000     11.390    633.7956 
4    105.000     12.860    100.000     12.400     90.000     11.390     95.000     11.930    745.1710 
4    110.000     13.270    105.000     12.860     95.000     11.930    100.000     12.400    959.2067 
4    115.000     13.870    110.000     13.270    100.000     12.400    105.000     12.860   1000.9585 
4    120.000     14.580    115.000     13.870    105.000     12.860    110.000     13.270   1070.2683 
4    125.000     15.550    120.000     14.580    110.000     13.270    115.000     13.870    937.2254 
4    130.000     16.230    125.000     15.550    115.000     13.870    120.000     14.580    797.0120 
4    135.000     16.980    130.000     16.230    120.000     14.580    125.000     15.550    841.0228 
4    140.000     17.800    135.000     16.980    125.000     15.550    130.000     16.230    647.4954 
4    145.000     18.890    140.000     17.800    130.000     16.230    135.000     16.980    672.3269 
4    150.000     19.790    145.000     18.890    135.000     16.980    140.000     17.800    604.3318 
4    155.000     20.490    150.000     19.790    140.000     17.800    145.000     18.890    677.7527 
4    160.000     21.150    155.000     20.490    145.000     18.890    150.000     19.790    854.6040 
4    165.000     21.920    160.000     21.150    150.000     19.790    155.000     20.490    797.9064 
4    170.000     22.920    165.000     21.920    155.000     20.490    160.000     21.150   1043.1909 
4    175.000     23.940    170.000     22.920    160.000     21.150    165.000     21.920    818.1517 
4    180.000     24.680    175.000     23.940    165.000     21.920    170.000     22.920   1072.0120 
4    185.000     25.270    180.000     24.680    170.000     22.920    175.000     23.940   1183.7898 
4    190.000     25.870    185.000     25.270    175.000     23.940    180.000     24.680    916.7020 
4    195.000     26.780    190.000     25.870    180.000     24.680    185.000     25.270   1277.1705 
4    200.000     27.920    195.000     26.780    185.000     25.270    190.000     25.870    988.6497 
4    205.000     28.510    200.000     27.920    190.000     25.870    195.000     26.780    866.6318 
4    210.000     28.920    205.000     28.510    195.000     26.780    200.000     27.920    577.4985 
4    215.000     29.450    210.000     28.920    200.000     27.920    205.000     28.510    476.9908 
4    220.000     29.960    215.000     29.450    205.000     28.510    210.000     28.920    602.8060 
4    225.000     30.410    220.000     29.960    210.000     28.920    215.000     29.450    590.9260 
4    230.000     31.100    225.000     30.410    215.000     29.450    220.000     29.960   1034.8689 
4    235.000     32.360    230.000     31.100    220.000     29.960    225.000     30.410   1694.3207 
4    240.000     34.340    235.000     32.360    225.000     30.410    230.000     31.100   1007.6784 
4    245.000     35.080    240.000     34.340    230.000     31.100    235.000     32.360    451.4808 
4    250.000     36.800    245.000     35.080    235.000     32.360    240.000     34.340    491.3429 
4    255.000     38.950    250.000     36.800    240.000     34.340    245.000     35.080    540.9332 
4    260.000     42.770    255.000     38.950    245.000     35.080    250.000     36.800    535.0560 
4    265.000     45.130    260.000     42.770    250.000     36.800    255.000     38.950    632.4308 
4    270.000     47.830    265.000     45.130    255.000     38.950    260.000     42.770    693.6637 
4    275.000     49.090    270.000     47.830    260.000     42.770    265.000     45.130    864.1673 
4    280.000     50.820    275.000     49.090    265.000     45.130    270.000     47.830   1087.4120 
4    285.000     51.500    280.000     50.820    270.000     47.830    275.000     49.090    897.2436 
4    290.000     51.120    285.000     51.500    275.000     49.090    280.000     50.820    934.0652 
4    295.000     54.370    290.000     51.120    280.000     50.820    285.000     51.500   1329.9587 
4    300.000     54.080    295.000     54.370    285.000     51.500    290.000     51.120   1149.8041 
4    305.000     53.630    300.000     54.080    290.000     51.120    295.000     54.370   1340.0526 
4    310.000     54.180    305.000     53.630    295.000     54.370    300.000     54.080   1300.6759 
4    315.000     55.110    310.000     54.180    300.000     54.080    305.000     53.630   1534.0051 
4    320.000     56.310    315.000     55.110    305.000     53.630    310.000     54.180   1541.3564 
4    325.000     55.600    320.000     56.310    310.000     54.180    315.000     55.110   1074.1420 
4    330.000     55.900    325.000     55.600    315.000     55.110    320.000     56.310    847.5514 
4    335.000     59.950    330.000     55.900    320.000     56.310    325.000     55.600    860.2211 
4    340.000     61.890    335.000     59.950    325.000     55.600    330.000     55.900    905.5619 
4    345.000     63.800    340.000     61.890    330.000     55.900    335.000     59.950    906.3168 
4    350.000     67.330    345.000     63.800    335.000     59.950    340.000     61.890    942.2591 
4    355.000     71.160    350.000     67.330    340.000     61.890    345.000     63.800   1182.2253 
4    360.000     70.820    355.000     71.160    345.000     63.800    350.000     67.330   1436.2891 
4    365.000     72.590    360.000     70.820    350.000     67.330    355.000     71.160   1559.6123 
4    370.000     72.650    365.000     72.590    355.000     71.160    360.000     70.820   1848.3970 
4    375.000     76.540    370.000     72.650    360.000     70.820    365.000     72.590   1636.9803 
4    380.000     80.500    375.000     76.540    365.000     72.590    370.000     72.650    921.6943 
4    385.000     81.390    380.000     80.500    370.000     72.650    375.000     76.540    799.0629 
4    390.000     81.390    385.000     81.390    375.000     76.540    380.000     80.500   1174.9965 
4    395.000     81.390    390.000     81.390    380.000     80.500    385.000     81.390   1307.3015 
4    400.000     81.390    395.000     81.390    385.000     81.390    390.000     81.390   1248.1799 
4     20.000      2.590     15.000      2.000      0.000      0.000      5.000      0.500    765.1563 
4     25.000      3.850     20.000      2.590      5.000      0.500     10.000      1.130    751.7731 
4     30.000      4.780     25.000      3.850     10.000      1.130     15.000      2.000    812.3066 
4     35.000      5.500     30.000      4.780     15.000      2.000     20.000      2.590   1046.1805 
4     40.000      6.260     35.000      5.500     20.000      2.590     25.000      3.850    830.6584 
4     45.000      6.940     40.000      6.260     25.000      3.850     30.000      4.780    765.3221 
4     50.000      7.720     45.000      6.940     30.000      4.780     35.000      5.500    893.7479 
4     55.000      8.140     50.000      7.720     35.000      5.500     40.000      6.260    703.4730 
4     60.000      8.510     55.000      8.140     40.000      6.260     45.000      6.940    819.6239 
4     65.000      8.950     60.000      8.510     45.000      6.940     50.000      7.720    795.6171 
4     70.000      9.310     65.000      8.950     50.000      7.720     55.000      8.140    722.1868 
4     75.000      9.720     70.000      9.310     55.000      8.140     60.000      8.510    721.3046 
4     80.000     10.270     75.000      9.720     60.000      8.510     65.000      8.950    633.8239 
4     85.000     10.830     80.000     10.270     65.000      8.950     70.000      9.310    606.7709 
4     90.000     11.390     85.000     10.830     70.000      9.310     75.000      9.720    521.8801 
4     95.000     11.930     90.000     11.390     75.000      9.720     80.000     10.270    594.9598 
4    100.000     12.400     95.000     11.930     80.000     10.270     85.000     10.830    534.1851 
4    105.000     12.860    100.000     12.400     85.000     10.830     90.000     11.390    607.3817 
4    110.000     13.270    105.000     12.860     90.000     11.390     95.000     11.930    721.4215 
4    115.000     13.870    110.000     13.270     95.000     11.930    100.000     12.400    856.3014 
4    120.000     14.580    115.000     13.870    100.000     12.400    105.000     12.860    948.3362 
4    125.000     15.550    120.000     14.580    105.000     12.860    110.000     13.270    913.6342 
4    130.000     16.230    125.000     15.550    110.000     13.270    115.000     13.870    710.7225 
4    135.000     16.980    130.000     16.230    115.000     13.870    120.000     14.580    707.9479 
4    140.000     17.800    135.000     16.980    120.000     14.580    125.000     15.550    675.9866 
4    145.000     18.890    140.000     17.800    125.000     15.550    130.000     16.230    711.8347 
4    150.000     19.790    145.000     18.890    130.000     16.230    135.000     16.980    735.9658 
4    155.000     20.490    150.000     19.790    135.000     16.980    140.000     17.800    680.2541 
4    160.000     21.150    155.000     20.490    140.000     17.800    145.000     18.890    929.9995 
4    165.000     21.920    160.000     21.150    145.000     18.890    150.000     19.790    893.5896 
4    170.000     22.920    165.000     21.920    150.000     19.790    155.000     20.490    954.5717 
4    175.000     23.940    170.000     22.920    155.000     20.490    160.000     21.150   1068.6304 
4    180.000     24.680    175.000     23.940    160.000     21.150    165.000     21.920    796.3786 
4    185.000     25.270    180.000     24.680    165.000     21.920    170.000     22.920   1171.6017 
4    190.000     25.870    185.000     25.270    170.000     22.920    175.000     23.940   1014.8978 
4    195.000     26.780    190.000     25.870    175.000     23.940    180.000     24.680    945.6332 
4    200.000     27.920    195.000     26.780    180.000     24.680    185.000     25.270    963.1407 
4    205.000     28.510    200.000     27.920    185.000     25.270    190.000     25.870    759.8105 
4    210.000     28.920    205.000     28.510    190.000     25.870    195.000     26.780    807.2097 
4    215.000     29.450    210.000     28.920    195.000     26.780    200.000     27.920    564.1710 
4    220.000     29.960    215.000     29.450    200.000     27.920    205.000     28.510    535.1917 
4    225.000     30.410    220.000     29.960    205.000     28.510    210.000     28.920    780.5488 
4    230.000     31.100    225.000     30.410    210.000     28.920    215.000     29.450    747.0494 
4    235.000     32.360    230.000     31.100    215.000     29.450    220.000     29.960    846.6731 
4    240.000     34.340    235.000     32.360    220.000     29.960    225.000     30.410    933.1925 
4    245.000     35.080    240.000     34.340    225.000     30.410    230.000     31.100    411.1767 
4    250.000     36.800    245.000     35.080    230.000     31.100    235.000     32.360    285.5086 
4    255.000     38.950    250.000     36.800    235.000     32.360    240.000     34.340    286.9984 
4    260.000     42.770    255.000     38.950    240.000     34.340    245.000     35.080    288.3066 
4    265.000     45.130    260.000     42.770    245.000     35.080    250.000     36.800    349.5428 
4    270.000     47.830    265.000     45.130    250.000     36.800    255.000     38.950    506.6987 
4    275.000     49.090    270.000     47.830    255.000     38.950    260.000     42.770    560.5594 
4    280.000     50.820    275.000     49.090    260.000     42.770    265.000     45.130    838.2963 
4    285.000     51.500    280.000     50.820    265.000     45.130    270.000     47.830   1003.1507 
4    290.000     51.120    285.000     51.500    270.000     47.830    275.000     49.090    894.8412 
4    295.000     54.370    290.000     51.120    275.000     49.090    280.000     50.820   1455.9095 
4    300.000     54.080    295.000     54.370    280.000     50.820    285.000     51.500   1085.0483 
4    305.000     53.630    300.000     54.080    285.000     51.500    290.000     51.120   1142.7996 
4    310.000     54.180    305.000     53.630    290.000     51.120    295.000     54.370   1409.6000 
4    315.000     55.110    310.000     54.180    295.000     54.370    300.000     54.080   1359.8899 
4    320.000     56.310    315.000     55.110    300.000     54.080    305.000     53.630   1313.5087 
4    325.000     55.600    320.000     56.310    305.000     53.630    310.000     54.180    855.9772 
4    330.000     55.900    325.000     55.600    310.000     54.180    315.000     55.110    683.6244 
4    335.000     59.950    330.000     55.900    315.000     55.110    320.000     56.310    650.4115 
4    340.000     61.890    335.000     59.950    320.000     56.310    325.000     55.600    910.9839 
4    345.000     63.800    340.000     61.890    325.000     55.600    330.000     55.900    836.6978 
4    350.000     67.330    345.000     63.800    330.000     55.900    335.000     59.950   1055.0398 
4    355.000     71.160    350.000     67.330    335.000     59.950    340.000     61.890   1170.6215 
4    360.000     70.820    355.000     71.160    340.000     61.890    345.000     63.800   1583.8264 
4    365.000     72.590    360.000     70.820    345.000     63.800    350.000     67.330   1681.5426 
4    370.000     72.650    365.000     72.590    350.000     67.330    355.000     71.160   2005.1857 
4    375.000     76.540    370.000     72.650    355.000     71.160    360.000     70.820   2356.0173 
4    380.000     80.500    375.000     76.540    360.000     70.820    365.000     72.590   1084.6752 
4    385.000     81.390    380.000     80.500    365.000     72.590    370.000     72.650    795.3306 
4    390.000     81.390    385.000     81.390    370.000     72.650    375.000     76.540    905.7551 
4    395.000     81.390    390.000     81.390    375.000     76.540    380.000     80.500    975.1780 
4    400.000     81.390    395.000     81.390    380.000     80.500    385.000     81.390   1121.4430 
4     30.000      4.780     20.000      2.590      0.000      0.000     10.000      1.130    794.6935 
4     40.000      6.260     30.000      4.780     10.000      1.130     20.000      2.590    935.7014 
4     50.000      7.720     40.000      6.260     20.000      2.590     30.000      4.780    797.2476 
4     60.000      8.510     50.000      7.720     30.000      4.780     40.000      6.260    807.4452 
4     70.000      9.310     60.000      8.510     40.000      6.260     50.000      7.720    776.4509 
4     80.000     10.270     70.000      9.310     50.000      7.720     60.000      8.510    758.1989 
4     90.000     11.390     80.000     10.270     60.000      8.510     70.000      9.310    584.4305 
4    100.000     12.400     90.000     11.390     70.000      9.310     80.000     10.270    598.3528 
4    110.000     13.270    100.000     12.400     80.000     10.270     90.000     11.390    643.6049 
4    120.000     14.580    110.000     13.270     90.000     11.390    100.000     12.400    825.2411 
4    130.000     16.230    120.000     14.580    100.000     12.400    110.000     13.270    870.5347 
4    140.000     17.800    130.000     16.230    110.000     13.270    120.000     14.580    696.8605 
4    150.000     19.790    140.000     17.800    120.000     14.580    130.000     16.230    734.3485 
4    160.000     21.150    150.000     19.790    130.000     16.230    140.000     17.800    766.4814 
4    170.000     22.920    160.000     21.150    140.000     17.800    150.000     19.790    946.4042 
4    180.000     24.680    170.000     22.920    150.000     19.790    160.000     21.150   1016.5792 
4    190.000     25.870    180.000     24.680    160.000     21.150    170.000     22.920   1076.0834 
4    200.000     27.920    190.000     25.870    170.000     22.920    180.000     24.680    941.7992 
4    210.000     28.920    200.000     27.920    180.000     24.680    190.000     25.870    799.0402 
4    220.000     29.960    210.000     28.920    190.000     25.870    200.000     27.920    637.7898 
4    230.000     31.100    220.000     29.960    200.000     27.920    210.000     28.920    809.9410 
4    240.000     34.340    230.000     31.100    210.000     28.920    220.000     29.960    711.3747 
4    250.000     36.800    240.000     34.340    220.000     29.960    230.000     31.100    377.8959 
4    260.000     42.770    250.000     36.800    230.000     31.100    240.000     34.340    236.6355 
4    270.000     47.830    260.000     42.770    240.000     34.340    250.000     36.800    293.4669 
4    280.000     50.820    270.000     47.830    250.000     36.800    260.000     42.770    480.4224 
4    290.000     51.120    280.000     50.820    260.000     42.770    270.000     47.830    858.8008 
4    300.000     54.080    290.000     51.120    270.000     47.830    280.000     50.820   1256.8318 
4    310.000     54.180    300.000     54.080    280.000     50.820    290.000     51.120   1084.4564 
4    320.000     56.310    310.000     54.180    290.000     51.120    300.000     54.080   1243.5599 
4    330.000     55.900    320.000     56.310    300.000     54.080    310.000     54.180    699.3261 
4    340.000     61.890    330.000     55.900    310.000     54.180    320.000     56.310    612.5804 
4    350.000     67.330    340.000     61.890    320.000     56.310    330.000     55.900    853.1555 
4    360.000     70.820    350.000     67.330    330.000     55.900    340.000     61.890   1263.1257 
4    370.000     72.650    360.000     70.820    340.000     61.890    350.000     67.330   1832.9364 
4    380.000     80.500    370.000     72.650    350.000     67.330    360.000     70.820   2040.4456 
4    390.000     81.390    380.000     80.500    360.000     70.820    370.000     72.650    939.0453 
4    400.000     81.390    390.000     81.390    370.000     72.650    380.000     80.500    918.5898 
4     25.000      3.850     20.000      2.590      0.000      0.000      5.000      0.500    863.7526 
4     30.000      4.780     25.000      3.850      5.000      0.500     10.000      1.130    794.6614 
4     35.000      5.500     30.000      4.780     10.000      1.130     15.000      2.000    897.9014 
4     40.000      6.260     35.000      5.500     15.000      2.000     20.000      2.590    818.9953 
4     45.000      6.940     40.000      6.260     20.000      2.590     25.000      3.850    773.0193 
4     50.000      7.720     45.000      6.940     25.000      3.850     30.000      4.780    862.8092 
4     55.000      8.140     50.000      7.720     30.000      4.780     35.000      5.500    997.3677 
4     60.000      8.510     55.000      8.140     35.000      5.500     40.000      6.260    744.2417 
4     65.000      8.950     60.000      8.510     40.000      6.260     45.000      6.940    714.9995 
4     70.000      9.310     65.000      8.950     45.000      6.940     50.000      7.720    796.5219 
4     75.000      9.720     70.000      9.310     50.000      7.720     55.000      8.140    779.7543 
4     80.000     10.270     75.000      9.720     55.000      8.140     60.000      8.510    784.8229 
4     85.000     10.830     80.000     10.270     60.000      8.510     65.000      8.950    591.6461 
4     90.000     11.390     85.000     10.830     65.000      8.950     70.000      9.310    524.4728 
4     95.000     11.930     90.000     11.390     70.000      9.310     75.000      9.720    512.1500 
4    100.000     12.400     95.000     11.930     75.000      9.720     80.000     10.270    670.0470 
4    105.000     12.860    100.000     12.400     80.000     10.270     85.000     10.830    601.8654 
4    110.000     13.270    105.000     12.860     85.000     10.830     90.000     11.390    716.8203 
4    115.000     13.870    110.000     13.270     90.000     11.390     95.000     11.930    711.3539 
4    120.000     14.580    115.000     13.870     95.000     11.930    100.000     12.400    876.0557 
4    125.000     15.550    120.000     14.580    100.000     12.400    105.000     12.860    878.0660 
4    130.000     16.230    125.000     15.550    105.000     12.860    110.000     13.270    783.7448 
4    135.000     16.980    130.000     16.230    110.000     13.270    115.000     13.870    694.9596 
4    140.000     17.800    135.000     16.980    115.000     13.870    120.000     14.580    671.5437 
4    145.000     18.890    140.000     17.800    120.000     14.580    125.000     15.550    742.4963 
4    150.000     19.790    145.000     18.890    125.000     15.550    130.000     16.230    746.2303 
4    155.000     20.490    150.000     19.790    130.000     16.230    135.000     16.980    750.2293 
4    160.000     21.150    155.000     20.490    135.000     16.980    140.000     17.800    891.7234 
4    165.000     21.920    160.000     21.150    140.000     17.800    145.000     18.890    915.9376 
4    170.000     22.920    165.000     21.920    145.000     18.890    150.000     19.790   1039.7981 
4    175.000     23.940    170.000     22.920    150.000     19.790    155.000     20.490    938.3394 
4    180.000     24.680    175.000     23.940    155.000     20.490    160.000     21.150   1008.5927 
4    185.000     25.270    180.000     24.680    160.000     21.150    165.000     21.920    958.4717 
4    190.000     25.870    185.000     25.270    165.000     21.920    170.000     22.920   1024.2378 
4    195.000     26.780    190.000     25.870    170.000     22.920    175.000     23.940   1072.2947 
4    200.000     27.920    195.000     26.780    175.000     23.940    180.000     24.680    786.2621 
4    205.000     28.510    200.000     27.920    180.000     24.680    185.000     25.270    835.7733 
4    210.000     28.920    205.000     28.510    185.000     25.270    190.000     25.870    779.3406 
4    215.000     29.450    210.000     28.920    190.000     25.870    195.000     26.780    792.6907 
4    220.000     29.960    215.000     29.450    195.000     26.780    200.000     27.920    616.9375 
4    225.000     30.410    220.000     29.960    200.000     27.920    205.000     28.510    803.1796 
4    230.000     31.100    225.000     30.410    205.000     28.510    210.000     28.920    887.6699 
4    235.000     32.360    230.000     31.100    210.000     28.920    215.000     29.450    737.1025 
4    240.000     34.340    235.000     32.360    215.000     29.450    220.000     29.960    458.9084 
4    245.000     35.080    240.000     34.340    220.000     29.960    225.000     30.410    388.5836 
4    250.000     36.800    245.000     35.080    225.000     30.410    230.000     31.100    296.7307 
4    255.000     38.950    250.000     36.800    230.000     31.100    235.000     32.360    200.8298 
4    260.000     42.770    255.000     38.950    235.000     32.360    240.000     34.340    172.0606 
4    265.000     45.130    260.000     42.770    240.000     34.340    245.000     35.080    200.7157 
4    270.000     47.830    265.000     45.130    245.000     35.080    250.000     36.800    291.2756 
4    275.000     49.090    270.000     47.830    250.000     36.800    255.000     38.950    355.7750 
4    280.000     50.820    275.000     49.090    255.000     38.950    260.000     42.770    492.1148 
4    285.000     51.500    280.000     50.820    260.000     42.770    265.000     45.130    656.5602 
4    290.000     51.120    285.000     51.500    265.000     45.130    270.000     47.830    869.2916 
4    295.000     54.370    290.000     51.120    270.000     47.830    275.000     49.090   1134.9130 
4    300.000     54.080    295.000     54.370    275.000     49.090    280.000     50.820   1107.7695 
4    305.000     53.630    300.000     54.080    280.000     50.820    285.000     51.500   1054.8683 
4    310.000     54.180    305.000     53.630    285.000     51.500    290.000     51.120   1042.7764 
4    315.000     55.110    310.000     54.180    290.000     51.120    295.000     54.370   1310.5060 
4    320.000     56.310    315.000     55.110    295.000     54.370    300.000     54.080   1032.3053 
4    325.000     55.600    320.000     56.310    300.000     54.080    305.000     53.630    703.2166 
4    330.000     55.900    325.000     55.600    305.000     53.630    310.000     54.180    461.4230 
4    335.000     59.950    330.000     55.900    310.000     54.180    315.000     55.110    492.7245 
4    340.000     61.890    335.000     59.950    315.000     55.110    320.000     56.310    677.8272 
4    345.000     63.800    340.000     61.890    320.000     56.310    325.000     55.600    826.7161 
4    350.000     67.330    345.000     63.800    325.000     55.600    330.000     55.900    931.4669 
4    355.000     71.160    350.000     67.330    330.000     55.900    335.000     59.950   1194.1665 
4    360.000     70.820    355.000     71.160    335.000     59.950    340.000     61.890   1476.3821 
4    365.000     72.590    360.000     70.820    340.000     61.890    345.000     63.800   1819.5947 
4    370.000     72.650    365.000     72.590    345.000     63.800    350.000     67.330   2048.7109 
4    375.000     76.540    370.000     72.650    350.000     67.330    355.000     71.160   2239.8645 
4    380.000     80.500    375.000     76.540    355.000     71.160    360.000     70.820   1394.9802 
4    385.000     81.390    380.000     80.500    360.000     70.820    365.000     72.590    996.6232 
4    390.000     81.390    385.000     81.390    365.000     72.590    370.000     72.650   1062.1160 
4    395.000     81.390    390.000     81.390    370.000     72.650    375.000     76.540    857.6896 
4    400.000     81.390    395.000     81.390    375.000     76.540    380.000     80.500    866.5848 
4     30.000      4.780     25.000      3.850      0.000      0.000      5.000      0.500    872.8645 
4     35.000      5.500     30.000      4.780      5.000      0.500     10.000      1.130    852.0433 
4     40.000      6.260     35.000      5.500     10.000      1.130     15.000      2.000    698.8284 
4     45.000      6.940     40.000      6.260     15.000      2.000     20.000      2.590    802.1786 
4     50.000      7.720     45.000      6.940     20.000      2.590     25.000      3.850    881.2224 
4     55.000      8.140     50.000      7.720     25.000      3.850     30.000      4.780    931.0908 
4     60.000      8.510     55.000      8.140     30.000      4.780     35.000      5.500   1010.7170 
4     65.000      8.950     60.000      8.510     35.000      5.500     40.000      6.260    655.6460 
4     70.000      9.310     65.000      8.950     40.000      6.260     45.000      6.940    710.8903 
4     75.000      9.720     70.000      9.310     45.000      6.940     50.000      7.720    805.3567 
4     80.000     10.270     75.000      9.720     50.000      7.720     55.000      8.140    810.2934 
4     85.000     10.830     80.000     10.270     55.000      8.140     60.000      8.510    720.1096 
4     90.000     11.390     85.000     10.830     60.000      8.510     65.000      8.950    535.0748 
4     95.000     11.930     90.000     11.390     65.000      8.950     70.000      9.310    553.9904 
4    100.000     12.400     95.000     11.930     70.000      9.310     75.000      9.720    604.3545 
4    105.000     12.860    100.000     12.400     75.000      9.720     80.000     10.270    755.3093 
4    110.000     13.270    105.000     12.860     80.000     10.270     85.000     10.830    727.8605 
4    115.000     13.870    110.000     13.270     85.000     10.830     90.000     11.390    722.2396 
4    120.000     14.580    115.000     13.870     90.000     11.390     95.000     11.930    767.5031 
4    125.000     15.550    120.000     14.580     95.000     11.930    100.000     12.400    842.7580 
4    130.000     16.230    125.000     15.550    100.000     12.400    105.000     12.860    773.7724 
4    135.000     16.980    130.000     16.230    105.000     12.860    110.000     13.270    783.2386 
4    140.000     17.800    135.000     16.980    110.000     13.270    115.000     13.870    668.5164 
4    145.000     18.890    140.000     17.800    115.000     13.870    120.000     14.580    762.6662 
4    150.000     19.790    145.000     18.890    120.000     14.580    125.000     15.550    780.4772 
4    155.000     20.490    150.000     19.790    125.000     15.550    130.000     16.230    742.9552 
4    160.000     21.150    155.000     20.490    130.000     16.230    135.000     16.980    957.0107 
4    165.000     21.920    160.000     21.150    135.000     16.980    140.000     17.800    831.7065 
4    170.000     22.920    165.000     21.920    140.000     17.800    145.000     18.890   1065.5107 
4    175.000     23.940    170.000     22.920    145.000     18.890    150.000     19.790   1031.4326 
4    180.000     24.680    175.000     23.940    150.000     19.790    155.000     20.490    891.7556 
4    185.000     25.270    180.000     24.680    155.000     20.490    160.000     21.150   1253.7593 
4    190.000     25.870    185.000     25.270    160.000     21.150    165.000     21.920    899.4876 
4    195.000     26.780    190.000     25.870    165.000     21.920    170.000     22.920   1133.7593 
4    200.000     27.920    195.000     26.780    170.000     22.920    175.000     23.940    943.1620 
4    205.000     28.510    200.000     27.920    175.000     23.940    180.000     24.680    761.7502 
4    210.000     28.920    205.000     28.510    180.000     24.680    185.000     25.270    931.7920 
4    215.000     29.450    210.000     28.920    185.000     25.270    190.000     25.870    784.2282 
4    220.000     29.960    215.000     29.450    190.000     25.870    195.000     26.780    799.8074 
4    225.000     30.410    220.000     29.960    195.000     26.780    200.000     27.920    859.3060 
4    230.000     31.100    225.000     30.410    200.000     27.920    205.000     28.510    879.9520 
4    235.000     32.360    230.000     31.100    205.000     28.510    210.000     28.920    848.6654 
4    240.000     34.340    235.000     32.360    210.000     28.920    215.000     29.450    461.9517 
4    245.000     35.080    240.000     34.340    215.000     29.450    220.000     29.960    258.4802 
4    250.000     36.800    245.000     35.080    220.000     29.960    225.000     30.410    329.3130 
4    255.000     38.950    250.000     36.800    225.000     30.410    230.000     31.100    237.1255 
4    260.000     42.770    255.000     38.950    230.000     31.100    235.000     32.360    142.9417 
4    265.000     45.130    260.000     42.770    235.000     32.360    240.000     34.340    132.4553 
4    270.000     47.830    265.000     45.130    240.000     34.340    245.000     35.080    189.3268 
4    275.000     49.090    270.000     47.830    245.000     35.080    250.000     36.800    226.9091 
4    280.000     50.820    275.000     49.090    250.000     36.800    255.000     38.950    308.1130 
4    285.000     51.500    280.000     50.820    255.000     38.950    260.000     42.770    358.4507 
4    290.000     51.120    285.000     51.500    260.000     42.770    265.000     45.130    519.9839 
4    295.000     54.370    290.000     51.120    265.000     45.130    270.000     47.830    966.0378 
4    300.000     54.080    295.000     54.370    270.000     47.830    275.000     49.090    794.8651 
4    305.000     53.630    300.000     54.080    275.000     49.090    280.000     50.820   1001.6107 
4    310.000     54.180    305.000     53.630    280.000     50.820    285.000     51.500    910.1282 
4    315.000     55.110    310.000     54.180    285.000     51.500    290.000     51.120    911.5231 
4    320.000     56.310    315.000     55.110    290.000     51.120    295.000     54.370    932.6214 
4    325.000     55.600    320.000     56.310    295.000     54.370    300.000     54.080    543.5175 
4    330.000     55.900    325.000     55.600    300.000     54.080    305.000     53.630    366.3788 
4    335.000     59.950    330.000     55.900    305.000     53.630    310.000     54.180    349.8251 
4    340.000     61.890    335.000     59.950    310.000     54.180    315.000     55.110    512.7098 
4    345.000     63.800    340.000     61.890    315.000     55.110    320.000     56.310    645.9121 
4    350.000     67.330    345.000     63.800    320.000     56.310    325.000     55.600    874.4328 
4    355.000     71.160    350.000     67.330    325.000     55.600    330.000     55.900    971.2366 
4    360.000     70.820    355.000     71.160    330.000     55.900    335.000     59.950   1424.9718 
4    365.000     72.590    360.000     70.820    335.000     59.950    340.000     61.890   1670.6323 
4    370.000     72.650    365.000     72.590    340.000     61.890    345.000     63.800   2175.2952 
4    375.000     76.540    370.000     72.650    345.000     63.800    350.000     67.330   2189.7908 
4    380.000     80.500    375.000     76.540    350.000     67.330    355.000     71.160   1347.2683 
4    385.000     81.390    380.000     80.500    355.000     71.160    360.000     70.820   1280.9460 
4    390.000     81.390    385.000     81.390    360.000     70.820    365.000     72.590   1296.2614 
4    395.000     81.390    390.000     81.390    365.000     72.590    370.000     72.650   1033.6211 
4    400.000     81.390    395.000     81.390    370.000     72.650    375.000     76.540    877.0227 
4     40.000      6.260     30.000      4.780      0.000      0.000     10.000      1.130    801.0609 
4     50.000      7.720     40.000      6.260     10.000      1.130     20.000      2.590    808.7214 
4     60.000      8.510     50.000      7.720     20.000      2.590     30.000      4.780    950.7188 
4     70.000      9.310     60.000      8.510     30.000      4.780     40.000      6.260    749.4666 
4     80.000     10.270     70.000      9.310     40.000      6.260     50.000      7.720    788.3488 
4     90.000     11.390     80.000     10.270     50.000      7.720     60.000      8.510    702.0035 
4    100.000     12.400     90.000     11.390     60.000      8.510     70.000      9.310    614.0333 
4    110.000     13.270    100.000     12.400     70.000      9.310     80.000     10.270    789.3968 
4    120.000     14.580    110.000     13.270     80.000     10.270     90.000     11.390    744.4157 
4    130.000     16.230    120.000     14.580     90.000     11.390    100.000     12.400    773.7592 
4    140.000     17.800    130.000     16.230    100.000     12.400    110.000     13.270    766.4380 
4    150.000     19.790    140.000     17.800    110.000     13.270    120.000     14.580    775.3124 
4    160.000     21.150    150.000     19.790    120.000     14.580    130.000     16.230    832.2457 
4    170.000     22.920    160.000     21.150    130.000     16.230    140.000     17.800    905.5176 
4    180.000     24.680    170.000     22.920    140.000     17.800    150.000     19.790   1039.8019 
4    190.000     25.870    180.000     24.680    150.000     19.790    160.000     21.150   1184.3552 
4    200.000     27.920    190.000     25.870    160.000     21.150    170.000     22.920   1049.3472 
4    210.000     28.920    200.000     27.920    170.000     22.920    180.000     24.680    871.3245 
4    220.000     29.960    210.000     28.920    180.000     24.680    190.000     25.870    837.9307 
4    230.000     31.100    220.000     29.960    190.000     25.870    200.000     27.920    937.5769 
4    240.000     34.340    230.000     31.100    200.000     27.920    210.000     28.920    718.6853 
4    250.000     36.800    240.000     34.340    210.000     28.920    220.000     29.960    286.1973 
4    260.000     42.770    250.000     36.800    220.000     29.960    230.000     31.100    229.7256 
4    270.000     47.830    260.000     42.770    230.000     31.100    240.000     34.340    132.5938 
4    280.000     50.820    270.000     47.830    240.000     34.340    250.000     36.800    203.6604 
4    290.000     51.120    280.000     50.820    250.000     36.800    260.000     42.770    288.1464 
4    300.000     54.080    290.000     51.120    260.000     42.770    270.000     47.830    711.9130 
4    310.000     54.180    300.000     54.080    270.000     47.830    280.000     50.820    820.3629 
4    320.000     56.310    310.000     54.180    280.000     50.820    290.000     51.120    756.6664 
4    330.000     55.900    320.000     56.310    290.000     51.120    300.000     54.080    434.6836 
4    340.000     61.890    330.000     55.900    300.000     54.080    310.000     54.180    340.0596 
4    350.000     67.330    340.000     61.890    310.000     54.180    320.000     56.310    593.6894 
4    360.000     70.820    350.000     67.330    320.000     56.310    330.000     55.900    985.0627 
4    370.000     72.650    360.000     70.820    330.000     55.900    340.000     61.890   1715.7168 
4    380.000     80.500    370.000     72.650    340.000     61.890    350.000     67.330   1881.3440 
4    390.000     81.390    380.000     80.500    350.000     67.330    360.000     70.820   1400.9669 
4    400.000     81.390    390.000     81.390    360.000     70.820    370.000     72.650   1135.4822 
4     35.000      5.500     30.000      4.780      0.000      0.000      5.000      0.500    904.7368 
4     40.000      6.260     35.000      5.500      5.000      0.500     10.000      1.130    669.7625 
4     45.000      6.940     40.000      6.260     10.000      1.130     15.000      2.000    695.6438 
4     50.000      7.720     45.000      6.940     15.000      2.000     20.000      2.590    930.1234 
4     55.000      8.140     50.000      7.720     20.000      2.590     25.000      3.850    947.0621 
4     60.000      8.510     55.000      8.140     25.000      3.850     30.000      4.780    961.6158 
4     65.000      8.950     60.000      8.510     30.000      4.780     35.000      5.500    889.5892 
4     70.000      9.310     65.000      8.950     35.000      5.500     40.000      6.260    663.8743 
4     75.000      9.720     70.000      9.310     40.000      6.260     45.000      6.940    722.7028 
4     80.000     10.270     75.000      9.720     45.000      6.940     50.000      7.720    835.2502 
4     85.000     10.830     80.000     10.270     50.000      7.720     55.000      8.140    732.8066 
4     90.000     11.390     85.000     10.830     55.000      8.140     60.000      8.510    646.9389 
4     95.000     11.930     90.000     11.390     60.000      8.510     65.000      8.950    577.4029 
4    100.000     12.400     95.000     11.930     65.000      8.950     70.000      9.310    682.2974 
4    105.000     12.860    100.000     12.400     70.000      9.310     75.000      9.720    699.4769 
4    110.000     13.270    105.000     12.860     75.000      9.720     80.000     10.270    902.9588 
4    115.000     13.870    110.000     13.270     80.000     10.270     85.000     10.830    728.9868 
4    120.000     14.580    115.000     13.870     85.000     10.830     90.000     11.390    773.8652 
4    125.000     15.550    120.000     14.580     90.000     11.390     95.000     11.930    744.2200 
4    130.000     16.230    125.000     15.550     95.000     11.930    100.000     12.400    747.4033 
4    135.000     16.980    130.000     16.230    100.000     12.400    105.000     12.860    768.0859 
4    140.000     17.800    135.000     16.980    105.000     12.860    110.000     13.270    751.2825 
4    145.000     18.890    140.000     17.800    110.000     13.270    115.000     13.870    755.0991 
4    150.000     19.790    145.000     18.890    115.000     13.870    120.000     14.580    805.2686 
4    155.000     20.490    150.000     19.790    120.000     14.580    125.000     15.550    777.0946 
4    160.000     21.150    155.000     20.490    125.000     15.550    130.000     16.230    943.8557 
4    165.000     21.920    160.000     21.150    130.000     16.230    135.000     16.980    884.4005 
4    170.000     22.920    165.000     21.920    135.000     16.980    140.000     17.800    970.0043 
4    175.000     23.940    170.000     22.920    140.000     17.800    145.000     18.890   1085.3918 
4    180.000     24.680    175.000     23.940    145.000     18.890    150.000     19.790    996.2452 
4    185.000     25.270    180.000     24.680    150.000     19.790    155.000     20.490   1132.2561 
4    190.000     25.870    185.000     25.270    155.000     20.490    160.000     21.150   1188.2477 
4    195.000     26.780    190.000     25.870    160.000     21.150    165.000     21.920   1023.5978 
4    200.000     27.920    195.000     26.780    165.000     21.920    170.000     22.920   1007.5432 
4    205.000     28.510    200.000     27.920    170.000     22.920    175.000     23.940    941.2399 
4    210.000     28.920    205.000     28.510    175.000     23.940    180.000     24.680    869.8467 
4    215.000     29.450    210.000     28.920    180.000     24.680    185.000     25.270    954.2828 
4    220.000     29.960    215.000     29.450    185.000     25.270    190.000     25.870    766.7302 
4    225.000     30.410    220.000     29.960    190.000     25.870    195.000     26.780   1064.0198 
4    230.000     31.100    225.000     30.410    195.000     26.780    200.000     27.920    878.5684 
4    235.000     32.360    230.000     31.100    200.000     27.920    205.000     28.510    813.1161 
4    240.000     34.340    235.000     32.360    205.000     28.510    210.000     28.920    533.3162 
4    245.000     35.080    240.000     34.340    210.000     28.920    215.000     29.450    316.1989 
4    250.000     36.800    245.000     35.080    215.000     29.450    220.000     29.960    268.4958 
4    255.000     38.950    250.000     36.800    220.000     29.960    225.000     30.410    277.6166 
4    260.000     42.770    255.000     38.950    225.000     30.410    230.000     31.100    178.5436 
4    265.000     45.130    260.000     42.770    230.000     31.100    235.000     32.360    123.5412 
4    270.000     47.830    265.000     45.130    235.000     32.360    240.000     34.340    136.1230 
4    275.000     49.090    270.000     47.830    240.000     34.340    245.000     35.080    163.4334 
4    280.000     50.820    275.000     49.090    245.000     35.080    250.000     36.800    228.9087 
4    285.000     51.500    280.000     50.820    250.000     36.800    255.000     38.950    235.4744 
4    290.000     51.120    285.000     51.500    255.000     38.950    260.000     42.770    277.7205 
4    295.000     54.370    290.000     51.120    260.000     42.770    265.000     45.130    540.4545 
4    300.000     54.080    295.000     54.370    265.000     45.130    270.000     47.830    648.4728 
4    305.000     53.630    300.000     54.080    270.000     47.830    275.000     49.090    683.9203 
4    310.000     54.180    305.000     53.630    275.000     49.090    280.000     50.820    813.4559 
4    315.000     55.110    310.000     54.180    280.000     50.820    285.000     51.500    764.2232 
4    320.000     56.310    315.000     55.110    285.000     51.500    290.000     51.120    626.2167 
4    325.000     55.600    320.000     56.310    290.000     51.120    295.000     54.370    494.7019 
4    330.000     55.900    325.000     55.600    295.000     54.370    300.000     54.080    285.2610 
4    335.000     59.950    330.000     55.900    300.000     54.080    305.000     53.630    298.1310 
4    340.000     61.890    335.000     59.950    305.000     53.630    310.000     54.180    370.6322 
4    345.000     63.800    340.000     61.890    310.000     54.180    315.000     55.110    489.3976 
4    350.000     67.330    345.000     63.800    315.000     55.110    320.000     56.310    667.0609 
4    355.000     71.160    350.000     67.330    320.000     56.310    325.000     55.600    875.1840 
4    360.000     70.820    355.000     71.160    325.000     55.600    330.000     55.900   1120.3545 
4    365.000     72.590    360.000     70.820    330.000     55.900    335.000     59.950   1549.0895 
4    370.000     72.650    365.000     72.590    335.000     59.950    340.000     61.890   1949.4163 
4    375.000     76.540    370.000     72.650    340.000     61.890    345.000     63.800   2246.8411 
4    380.000     80.500    375.000     76.540    345.000     63.800    350.000     67.330   1318.2946 
4    385.000     81.390    380.000     80.500    350.000     67.330    355.000     71.160   1266.2844 
4    390.000     81.390    385.000     81.390    355.000     71.160    360.000     70.820   1619.0873 
4    395.000     81.390    390.000     81.390    360.000     70.820    365.000     72.590   1243.0782 
4    400.000     81.390    395.000     81.390    365.000     72.590    370.000     72.650   1089.6702 
4     60.000      8.510     40.000      6.260      0.000      0.000     20.000      2.590    838.5263 
4     70.000      9.310     50.000      7.720     10.000      1.130     30.000      4.780    951.0581 
4     80.000     10.270     60.000      8.510     20.000      2.590     40.000      6.260    826.6775 
4     90.000     11.390     70.000      9.310     30.000      4.780     50.000      7.720    787.0707 
4    100.000     12.400     80.000     10.270     40.000      6.260     60.000      8.510    746.1710 
4    110.000     13.270     90.000     11.390     50.000      7.720     70.000      9.310    754.8380 
4    120.000     14.580    100.000     12.400     60.000      8.510     80.000     10.270    840.7694 
4    130.000     16.230    110.000     13.270     70.000      9.310     90.000     11.390    777.0126 
4    140.000     17.800    120.000     14.580     80.000     10.270    100.000     12.400    741.3719 
4    150.000     19.790    130.000     16.230     90.000     11.390    110.000     13.270    776.2548 
4    160.000     21.150    140.000     17.800    100.000     12.400    120.000     14.580    830.5944 
4    170.000     22.920    150.000     19.790    110.000     13.270    130.000     16.230    882.0047 
4    180.000     24.680    160.000     21.150    120.000     14.580    140.000     17.800    956.4453 
4    190.000     25.870    170.000     22.920    130.000     16.230    150.000     19.790   1101.5190 
4    200.000     27.920    180.000     24.680    140.000     17.800    160.000     21.150   1211.7626 
4    210.000     28.920    190.000     25.870    150.000     19.790    170.000     22.920   1081.5234 
4    220.000     29.960    200.000     27.920    160.000     21.150    180.000     24.680    925.8525 
4    230.000     31.100    210.000     28.920    170.000     22.920    190.000     25.870    920.1675 
4    240.000     34.340    220.000     29.960    180.000     24.680    200.000     27.920    886.8792 
4    250.000     36.800    230.000     31.100    190.000     25.870    210.000     28.920    612.6671 
4    260.000     42.770    240.000     34.340    200.000     27.920    220.000     29.960    298.2581 
4    270.000     47.830    250.000     36.800    210.000     28.920    230.000     31.100    215.8248 
4    280.000     50.820    260.000     42.770    220.000     29.960    240.000     34.340    145.8175 
4    290.000     51.120    270.000     47.830    230.000     31.100    250.000     36.800    173.4023 
4    300.000     54.080    280.000     50.820    240.000     34.340    260.000     42.770    242.3864 
4    310.000     54.180    290.000     51.120    250.000     36.800    270.000     47.830    500.6668 
4    320.000     56.310    300.000     54.080    260.000     42.770    280.000     50.820    616.8857 
4    330.000     55.900    310.000     54.180    270.000     47.830    290.000     51.120    550.4636 
4    340.000     61.890    320.000     56.310    280.000     50.820    300.000     54.080    343.3824 
4    350.000     67.330    330.000     55.900    290.000     51.120    310.000     54.180    323.7977 
4    360.000     70.820    340.000     61.890    300.000     54.080    320.000     56.310    525.8347 
4    370.000     72.650    350.000     67.330    310.000     54.180    330.000     55.900    906.6335 
4    380.000     80.500    360.000     70.820    320.000     56.310    340.000     61.890   1479.3584 
4    390.000     81.390    370.000     72.650    330.000     55.900    350.000     67.330   1646.3843 
4    400.000     81.390    380.000     80.500    340.000     61.890    360.000     70.820   1458.0056 
4     40.000      6.260     35.000      5.500      0.000      0.000      5.000      0.500    698.7380 
4     45.000      6.940     40.000      6.260      5.000      0.500     10.000      1.130    675.8848 
4     50.000      7.720     45.000      6.940     10.000      1.130     15.000      2.000    814.1968 
4     55.000      8.140     50.000      7.720     15.000      2.000     20.000      2.590    996.6529 
4     60.000      8.510     55.000      8.140     20.000      2.590     25.000      3.850    990.4831 
4     65.000      8.950     60.000      8.510     25.000      3.850     30.000      4.780    856.8156 
4     70.000      9.310     65.000      8.950     30.000      4.780     35.000      5.500    921.6754 
4     75.000      9.720     70.000      9.310     35.000      5.500     40.000      6.260    684.4930 
4     80.000     10.270     75.000      9.720     40.000      6.260     45.000      6.940    764.2205 
4     85.000     10.830     80.000     10.270     45.000      6.940     50.000      7.720    755.0582 
4     90.000     11.390     85.000     10.830     50.000      7.720     55.000      8.140    681.1627 
4     95.000     11.930     90.000     11.390     55.000      8.140     60.000      8.510    712.6188 
4    100.000     12.400     95.000     11.930     60.000      8.510     65.000      8.950    721.0369 
4    105.000     12.860    100.000     12.400     65.000      8.950     70.000      9.310    794.9642 
4    110.000     13.270    105.000     12.860     70.000      9.310     75.000      9.720    837.4933 
4    115.000     13.870    110.000     13.270     75.000      9.720     80.000     10.270    886.1078 
4    120.000     14.580    115.000     13.870     80.000     10.270     85.000     10.830    778.9828 
4    125.000     15.550    120.000     14.580     85.000     10.830     90.000     11.390    747.4949 
4    130.000     16.230    125.000     15.550     90.000     11.390     95.000     11.930    665.6827 
4    135.000     16.980    130.000     16.230     95.000     11.930    100.000     12.400    744.6660 
4    140.000     17.800    135.000     16.980    100.000     12.400    105.000     12.860    734.5536 
4    145.000     18.890    140.000     17.800    105.000     12.860    110.000     13.270    847.9012 
4    150.000     19.790    145.000     18.890    110.000     13.270    115.000     13.870    790.3671 
4    155.000     20.490    150.000     19.790    115.000     13.870    120.000     14.580    797.1598 
4    160.000     21.150    155.000     20.490    120.000     14.580    125.000     15.550    993.0587 
4    165.000     21.920    160.000     21.150    125.000     15.550    130.000     16.230    866.8911 
4    170.000     22.920    165.000     21.920    130.000     16.230    135.000     16.980   1039.1661 
4    175.000     23.940    170.000     22.920    135.000     16.980    140.000     17.800   1004.1000 
4    180.000     24.680    175.000     23.940    140.000     17.800    145.000     18.890   1059.0586 
4    185.000     25.270    180.000     24.680    145.000     18.890    150.000     19.790   1269.9308 
4    190.000     25.870    185.000     25.270    150.000     19.790    155.000     20.490   1069.9995 
4    195.000     26.780    190.000     25.870    155.000     20.490    160.000     21.150   1334.6903 
4    200.000     27.920    195.000     26.780    160.000     21.150    165.000     21.920    909.2091 
4    205.000     28.510    200.000     27.920    165.000     21.920    170.000     22.920   1003.1711 
4    210.000     28.920    205.000     28.510    170.000     22.920    175.000     23.940   1068.1682 
4    215.000     29.450    210.000     28.920    175.000     23.940    180.000     24.680    879.3522 
4    220.000     29.960    215.000     29.450    180.000     24.680    185.000     25.270    911.7794 
4    225.000     30.410    220.000     29.960    185.000     25.270    190.000     25.870   1000.1680 
4    230.000     31.100    225.000     30.410    190.000     25.870    195.000     26.780   1031.6664 
4    235.000     32.360    230.000     31.100    195.000     26.780    200.000     27.920    780.0225 
4    240.000     34.340    235.000     32.360    200.000     27.920    205.000     28.510    501.3338 
4    245.000     35.080    240.000     34.340    205.000     28.510    210.000     28.920    375.4713 
4    250.000     36.800    245.000     35.080    210.000     28.920    215.000     29.450    349.7326 
4    255.000     38.950    250.000     36.800    215.000     29.450    220.000     29.960    236.9460 
4    260.000     42.770    255.000     38.950    220.000     29.960    225.000     30.410    207.3118 
4    265.000     45.130    260.000     42.770    225.000     30.410    230.000     31.100    156.5207 
4    270.000     47.830    265.000     45.130    230.000     31.100    235.000     32.360    139.3850 
4    275.000     49.090    270.000     47.830    235.000     32.360    240.000     34.340    118.8609 
4    280.000     50.820    275.000     49.090    240.000     34.340    245.000     35.080    169.1622 
4    285.000     51.500    280.000     50.820    245.000     35.080    250.000     36.800    193.5212 
4    290.000     51.120    285.000     51.500    250.000     36.800    255.000     38.950    196.9175 
4    295.000     54.370    290.000     51.120    255.000     38.950    260.000     42.770    296.5981 
4    300.000     54.080    295.000     54.370    260.000     42.770    265.000     45.130    365.7742 
4    305.000     53.630    300.000     54.080    265.000     45.130    270.000     47.830    546.4132 
4    310.000     54.180    305.000     53.630    270.000     47.830    275.000     49.090    534.5802 
4    315.000     55.110    310.000     54.180    275.000     49.090    280.000     50.820    669.8997 
4    320.000     56.310    315.000     55.110    280.000     50.820    285.000     51.500    521.3206 
4    325.000     55.600    320.000     56.310    285.000     51.500    290.000     51.120    338.3134 
4    330.000     55.900    325.000     55.600    290.000     51.120    295.000     54.370    275.5732 
4    335.000     59.950    330.000     55.900    295.000     54.370    300.000     54.080    245.4914 
4    340.000     61.890    335.000     59.950    300.000     54.080    305.000     53.630    324.8401 
4    345.000     63.800    340.000     61.890    305.000     53.630    310.000     54.180    359.5041 
4    350.000     67.330    345.000     63.800    310.000     54.180    315.000     55.110    502.2754 
4    355.000     71.160    350.000     67.330    315.000     55.110    320.000     56.310    669.7625 
4    360.000     70.820    355.000     71.160    320.000     56.310    325.000     55.600    984.8041 
4    365.000     72.590    360.000     70.820    325.000     55.600    330.000     55.900   1166.0463 
4    370.000     72.650    365.000     72.590    330.000     55.900    335.000     59.950   1743.2719 
4    375.000     76.540    370.000     72.650    335.000     59.950    340.000     61.890   1957.9231 
4    380.000     80.500    375.000     76.540    340.000     61.890    345.000     63.800   1339.1713 
4    385.000     81.390    380.000     80.500    345.000     63.800    350.000     67.330   1271.1447 
4    390.000     81.390    385.000     81.390    350.000     67.330    355.000     71.160   1605.3397 
4    395.000     81.390    390.000     81.390    355.000     71.160    360.000     70.820   1523.6541 
4    400.000     81.390    395.000     81.390    360.000     70.820    365.000     72.590   1316.8563 
4     50.000      7.720     40.000      6.260      0.000      0.000     10.000      1.130    734.8537 
4     60.000      8.510     50.000      7.720     10.000      1.130     20.000      2.590    977.0347 
4     70.000      9.310     60.000      8.510     20.000      2.590     30.000      4.780    906.6636 
4     80.000     10.270     70.000      9.310     30.000      4.780     40.000      6.260    822.4363 
4     90.000     11.390     80.000     10.270     40.000      6.260     50.000      7.720    729.3251 
4    100.000     12.400     90.000     11.390     50.000      7.720     60.000      8.510    807.8976 
4    110.000     13.270    100.000     12.400     60.000      8.510     70.000      9.310    876.2706 
4    120.000     14.580    110.000     13.270     70.000      9.310     80.000     10.270    880.6852 
4    130.000     16.230    120.000     14.580     80.000     10.270     90.000     11.390    721.2632 
4    140.000     17.800    130.000     16.230     90.000     11.390    100.000     12.400    705.5370 
4    150.000     19.790    140.000     17.800    100.000     12.400    110.000     13.270    856.2429 
4    160.000     21.150    150.000     19.790    110.000     13.270    120.000     14.580    881.2695 
4    170.000     22.920    160.000     21.150    120.000     14.580    130.000     16.230    950.1703 
4    180.000     24.680    170.000     22.920    130.000     16.230    140.000     17.800   1025.1199 
4    190.000     25.870    180.000     24.680    140.000     17.800    150.000     19.790   1266.3414 
4    200.000     27.920    190.000     25.870    150.000     19.790    160.000     21.150   1210.6675 
4    210.000     28.920    200.000     27.920    160.000     21.150    170.000     22.920   1011.0902 
4    220.000     29.960    210.000     28.920    170.000     22.920    180.000     24.680    927.5923 
4    230.000     31.100    220.000     29.960    180.000     24.680    190.000     25.870   1042.9120 
4    240.000     34.340    230.000     31.100    190.000     25.870    200.000     27.920    696.7060 
4    250.000     36.800    240.000     34.340    200.000     27.920    210.000     28.920    385.9371 
4    260.000     42.770    250.000     36.800    210.000     28.920    220.000     29.960    235.5836 
4    270.000     47.830    260.000     42.770    220.000     29.960    230.000     31.100    179.5920 
4    280.000     50.820    270.000     47.830    230.000     31.100    240.000     34.340    127.5091 
4    290.000     51.120    280.000     50.820    240.000     34.340    250.000     36.800    171.8906 
4    300.000     54.080    290.000     51.120    250.000     36.800    260.000     42.770    234.1002 
4    310.000     54.180    300.000     54.080    260.000     42.770    270.000     47.830    408.6056 
4    320.000     56.310    310.000     54.180    270.000     47.830    280.000     50.820    498.9251 
4    330.000     55.900    320.000     56.310    280.000     50.820    290.000     51.120    265.1247 
4    340.000     61.890    330.000     55.900    290.000     51.120    300.000     54.080    266.0370 
4    350.000     67.330    340.000     61.890    300.000     54.080    310.000     54.180    353.4235 
4    360.000     70.820    350.000     67.330    310.000     54.180    320.000     56.310    613.3966 
4    370.000     72.650    360.000     70.820    320.000     56.310    330.000     55.900   1133.6274 
4    380.000     80.500    370.000     72.650    330.000     55.900    340.000     61.890   1533.2172 
4    390.000     81.390    380.000     80.500    340.000     61.890    350.000     67.330   1419.3019 
4    400.000     81.390    390.000     81.390    350.000     67.330    360.000     70.820   1566.5734 
4     45.000      6.940     40.000      6.260      0.000      0.000      5.000      0.500    705.3620 
4     50.000      7.720     45.000      6.940      5.000      0.500     10.000      1.130    782.3118 
4     55.000      8.140     50.000      7.720     10.000      1.130     15.000      2.000    888.6544 
4     60.000      8.510     55.000      8.140     15.000      2.000     20.000      2.590   1045.3281 
4     65.000      8.950     60.000      8.510     20.000      2.590     25.000      3.850    898.1546 
4     70.000      9.310     65.000      8.950     25.000      3.850     30.000      4.780    928.0247 
4     75.000      9.720     70.000      9.310     30.000      4.780     35.000      5.500    956.0265 
4     80.000     10.270     75.000      9.720     35.000      5.500     40.000      6.260    732.5934 
4     85.000     10.830     80.000     10.270     40.000      6.260     45.000      6.940    713.2416 
4     90.000     11.390     85.000     10.830     45.000      6.940     50.000      7.720    721.5352 
4     95.000     11.930     90.000     11.390     50.000      7.720     55.000      8.140    760.6609 
4    100.000     12.400     95.000     11.930     55.000      8.140     60.000      8.510    896.2546 
4    105.000     12.860    100.000     12.400     60.000      8.510     65.000      8.950    844.6765 
4    110.000     13.270    105.000     12.860     65.000      8.950     70.000      9.310    949.4872 
4    115.000     13.870    110.000     13.270     70.000      9.310     75.000      9.720    818.0681 
4    120.000     14.580    115.000     13.870     75.000      9.720     80.000     10.270    933.0360 
4    125.000     15.550    120.000     14.580     80.000     10.270     85.000     10.830    750.7744 
4    130.000     16.230    125.000     15.550     85.000     10.830     90.000     11.390    668.3809 
4    135.000     16.980    130.000     16.230     90.000     11.390     95.000     11.930    670.2382 
4    140.000     17.800    135.000     16.980     95.000     11.930    100.000     12.400    717.9307 
4    145.000     18.890    140.000     17.800    100.000     12.400    105.000     12.860    834.1313 
4    150.000     19.790    145.000     18.890    105.000     12.860    110.000     13.270    884.0943 
4    155.000     20.490    150.000     19.790    110.000     13.270    115.000     13.870    785.0209 
4    160.000     21.150    155.000     20.490    115.000     13.870    120.000     14.580   1023.1531 
4    165.000     21.920    160.000     21.150    120.000     14.580    125.000     15.550    910.3069 
4    170.000     22.920    165.000     21.920    125.000     15.550    130.000     16.230   1022.2664 
4    175.000     23.940    170.000     22.920    130.000     16.230    135.000     16.980   1083.7485 
4    180.000     24.680    175.000     23.940    135.000     16.980    140.000     17.800    978.6844 
4    185.000     25.270    180.000     24.680    140.000     17.800    145.000     18.890   1345.2645 
4    190.000     25.870    185.000     25.270    145.000     18.890    150.000     19.790   1192.6996 
4    195.000     26.780    190.000     25.870    150.000     19.790    155.000     20.490   1196.8005 
4    200.000     27.920    195.000     26.780    155.000     20.490    160.000     21.150   1177.0560 
4    205.000     28.510    200.000     27.920    160.000     21.150    165.000     21.920    906.8394 
4    210.000     28.920    205.000     28.510    165.000     21.920    170.000     22.920   1126.8396 
4    215.000     29.450    210.000     28.920    170.000     22.920    175.000     23.940   1072.5778 
4    220.000     29.960    215.000     29.450    175.000     23.940    180.000     24.680    822.6440 
4    225.000     30.410    220.000     29.960    180.000     24.680    185.000     25.270   1146.1725 
4    230.000     31.100    225.000     30.410    185.000     25.270    190.000     25.870    953.3664 
4    235.000     32.360    230.000     31.100    190.000     25.870    195.000     26.780    892.7316 
4    240.000     34.340    235.000     32.360    195.000     26.780    200.000     27.920    474.2338 
4    245.000     35.080    240.000     34.340    200.000     27.920    205.000     28.510    351.8517 
4    250.000     36.800    245.000     35.080    205.000     28.510    210.000     28.920    417.5660 
4    255.000     38.950    250.000     36.800    210.000     28.920    215.000     29.450    311.6660 
4    260.000     42.770    255.000     38.950    215.000     29.450    220.000     29.960    177.4039 
4    265.000     45.130    260.000     42.770    220.000     29.960    225.000     30.410    187.4678 
4    270.000     47.830    265.000     45.130    225.000     30.410    230.000     31.100    175.7422 
4    275.000     49.090    270.000     47.830    230.000     31.100    235.000     32.360    127.3507 
4    280.000     50.820    275.000     49.090    235.000     32.360    240.000     34.340    129.5056 
4    285.000     51.500    280.000     50.820    240.000     34.340    245.000     35.080    153.1349 
4    290.000     51.120    285.000     51.500    245.000     35.080    250.000     36.800    177.3517 
4    295.000     54.370    290.000     51.120    250.000     36.800    255.000     38.950    218.3821 
4    300.000     54.080    295.000     54.370    255.000     38.950    260.000     42.770    202.0410 
4    305.000     53.630    300.000     54.080    260.000     42.770    265.000     45.130    300.7502 
4    310.000     54.180    305.000     53.630    265.000     45.130    270.000     47.830    447.2952 
4    315.000     55.110    310.000     54.180    270.000     47.830    275.000     49.090    438.5455 
4    320.000     56.310    315.000     55.110    275.000     49.090    280.000     50.820    456.3117 
4    325.000     55.600    320.000     56.310    280.000     50.820    285.000     51.500    290.4180 
4    330.000     55.900    325.000     55.600    285.000     51.500    290.000     51.120    191.6558 
4    335.000     59.950    330.000     55.900    290.000     51.120    295.000     54.370    249.5981 
4    340.000     61.890    335.000     59.950    295.000     54.370    300.000     54.080    280.8046 
4    345.000     63.800    340.000     61.890    300.000     54.080    305.000     53.630    330.0448 
4    350.000     67.330    345.000     63.800    305.000     53.630    310.000     54.180    370.9249 
4    355.000     71.160    350.000     67.330    310.000     54.180    315.000     55.110    480.5395 
4    360.000     70.820    355.000     71.160    315.000     55.110    320.000     56.310    718.7105 
4    365.000     72.590    360.000     70.820    320.000     56.310    325.000     55.600    993.0614 
4    370.000     72.650    365.000     72.590    325.000     55.600    330.000     55.900   1270.5377 
4    375.000     76.540    370.000     72.650    330.000     55.900    335.000     59.950   1680.4387 
4    380.000     80.500    375.000     76.540    335.000     59.950    340.000     61.890   1143.7341 
4    385.000     81.390    380.000     80.500    340.000     61.890    345.000     63.800   1308.7444 
4    390.000     81.390    385.000     81.390    345.000     63.800    350.000     67.330   1593.1241 
4    395.000     81.390    390.000     81.390    350.000     67.330    355.000     71.160   1526.2428 
4    400.000     81.390    395.000     81.390    355.000     71.160    360.000     70.820   1616.6053 
4     50.000      7.720     45.000      6.940      0.000      0.000      5.000      0.500    812.3386 
4     55.000      8.140     50.000      7.720      5.000      0.500     10.000      1.130    852.0900 
4     60.000      8.510     55.000      8.140     10.000      1.130     15.000      2.000    965.6974 
4     65.000      8.950     60.000      8.510     15.000      2.000     20.000      2.590    976.1702 
4     70.000      9.310     65.000      8.950     20.000      2.590     25.000      3.850    996.9281 
4     75.000      9.720     70.000      9.310     25.000      3.850     30.000      4.780    964.2079 
4     80.000     10.270     75.000      9.720     30.000      4.780     35.000      5.500   1050.4525 
4     85.000     10.830     80.000     10.270     35.000      5.500     40.000      6.260    707.3842 
4     90.000     11.390     85.000     10.830     40.000      6.260     45.000      6.940    689.6110 
4     95.000     11.930     90.000     11.390     45.000      6.940     50.000      7.720    810.3311 
4    100.000     12.400     95.000     11.930     50.000      7.720     55.000      8.140    947.6663 
4    105.000     12.860    100.000     12.400     55.000      8.140     60.000      8.510   1026.5280 
4    110.000     13.270    105.000     12.860     60.000      8.510     65.000      8.950    990.4635 
4    115.000     13.870    110.000     13.270     65.000      8.950     70.000      9.310    922.3856 
4    120.000     14.580    115.000     13.870     70.000      9.310     75.000      9.720    875.0578 
4    125.000     15.550    120.000     14.580     75.000      9.720     80.000     10.270    905.7988 
4    130.000     16.230    125.000     15.550     80.000     10.270     85.000     10.830    685.9478 
4    135.000     16.980    130.000     16.230     85.000     10.830     90.000     11.390    682.6555 
4    140.000     17.800    135.000     16.980     90.000     11.390     95.000     11.930    660.5224 
4    145.000     18.890    140.000     17.800     95.000     11.930    100.000     12.400    819.5994 
4    150.000     19.790    145.000     18.890    100.000     12.400    105.000     12.860    865.4084 
4    155.000     20.490    150.000     19.790    105.000     12.860    110.000     13.270    870.6799 
4    160.000     21.150    155.000     20.490    110.000     13.270    115.000     13.870    991.6680 
4    165.000     21.920    160.000     21.150    115.000     13.870    120.000     14.580    932.0566 
4    170.000     22.920    165.000     21.920    120.000     14.580    125.000     15.550   1081.6357 
4    175.000     23.940    170.000     22.920    125.000     15.550    130.000     16.230   1080.0592 
4    180.000     24.680    175.000     23.940    130.000     16.230    135.000     16.980   1050.6879 
4    185.000     25.270    180.000     24.680    135.000     16.980    140.000     17.800   1246.2987 
4    190.000     25.870    185.000     25.270    140.000     17.800    145.000     18.890   1257.9364 
4    195.000     26.780    190.000     25.870    145.000     18.890    150.000     19.790   1295.1567 
4    200.000     27.920    195.000     26.780    150.000     19.790    155.000     20.490   1022.7618 
4    205.000     28.510    200.000     27.920    155.000     20.490    160.000     21.150   1154.4185 
4    210.000     28.920    205.000     28.510    160.000     21.150    165.000     21.920   1008.6948 
4    215.000     29.450    210.000     28.920    165.000     21.920    170.000     22.920   1123.2318 
4    220.000     29.960    215.000     29.450    170.000     22.920    175.000     23.940    980.3401 
4    225.000     30.410    220.000     29.960    175.000     23.940    180.000     24.680   1030.7939 
4    230.000     31.100    225.000     30.410    180.000     24.680    185.000     25.270   1110.6350 
4    235.000     32.360    230.000     31.100    185.000     25.270    190.000     25.870    812.8271 
4    240.000     34.340    235.000     32.360    190.000     25.870    195.000     26.780    532.9667 
4    245.000     35.080    240.000     34.340    195.000     26.780    200.000     27.920    322.9630 
4    250.000     36.800    245.000     35.080    200.000     27.920    205.000     28.510    388.3423 
4    255.000     38.950    250.000     36.800    205.000     28.510    210.000     28.920    364.0468 
4    260.000     42.770    255.000     38.950    210.000     28.920    215.000     29.450    226.5735 
4    265.000     45.130    260.000     42.770    215.000     29.450    220.000     29.960    156.3706 
4    270.000     47.830    265.000     45.130    220.000     29.960    225.000     30.410    209.2583 
4    275.000     49.090    270.000     47.830    225.000     30.410    230.000     31.100    162.8274 
4    280.000     50.820    275.000     49.090    230.000     31.100    235.000     32.360    140.5834 
4    285.000     51.500    280.000     50.820    235.000     32.360    240.000     34.340    113.5169 
4    290.000     51.120    285.000     51.500    240.000     34.340    245.000     35.080    129.9353 
4    295.000     54.370    290.000     51.120    245.000     35.080    250.000     36.800    219.7312 
4    300.000     54.080    295.000     54.370    250.000     36.800    255.000     38.950    171.2712 
4    305.000     53.630    300.000     54.080    255.000     38.950    260.000     42.770    192.0257 
4    310.000     54.180    305.000     53.630    260.000     42.770    265.000     45.130    231.5509 
4    315.000     55.110    310.000     54.180    265.000     45.130    270.000     47.830    351.4138 
4    320.000     56.310    315.000     55.110    270.000     47.830    275.000     49.090    295.3243 
4    325.000     55.600    320.000     56.310    275.000     49.090    280.000     50.820    253.0632 
4    330.000     55.900    325.000     55.600    280.000     50.820    285.000     51.500    169.5024 
4    335.000     59.950    330.000     55.900    285.000     51.500    290.000     51.120    193.6588 
4    340.000     61.890    335.000     59.950    290.000     51.120    295.000     54.370    293.1630 
4    345.000     63.800    340.000     61.890    295.000     54.370    300.000     54.080    291.8013 
4    350.000     67.330    345.000     63.800    300.000     54.080    305.000     53.630    337.3999 
4    355.000     71.160    350.000     67.330    305.000     53.630    310.000     54.180    362.3379 
4    360.000     70.820    355.000     71.160    310.000     54.180    315.000     55.110    534.2990 
4    365.000     72.590    360.000     70.820    315.000     55.110    320.000     56.310    729.0797 
4    370.000     72.650    365.000     72.590    320.000     56.310    325.000     55.600   1060.0873 
4    375.000     76.540    370.000     72.650    325.000     55.600    330.000     55.900   1190.3381 
4    380.000     80.500    375.000     76.540    330.000     55.900    335.000     59.950    962.4888 
4    385.000     81.390    380.000     80.500    335.000     59.950    340.000     61.890   1122.8688 
4    390.000     81.390    385.000     81.390    340.000     61.890    345.000     63.800   1629.5743 
4    395.000     81.390    390.000     81.390    345.000     63.800    350.000     67.330   1542.3197 
4    400.000     81.390    395.000     81.390    350.000     67.330    355.000     71.160   1620.0627 
4     60.000      8.510     50.000      7.720      0.000      0.000     10.000      1.130    921.2721 
4     70.000      9.310     60.000      8.510     10.000      1.130     20.000      2.590    988.5612 
4     80.000     10.270     70.000      9.310     20.000      2.590     30.000      4.780   1058.1425 
4     90.000     11.390     80.000     10.270     30.000      4.780     40.000      6.260    828.3362 
4    100.000     12.400     90.000     11.390     40.000      6.260     50.000      7.720    891.3578 
4    110.000     13.270    100.000     12.400     50.000      7.720     60.000      8.510   1124.3308 
4    120.000     14.580    110.000     13.270     60.000      8.510     70.000      9.310    952.6490 
4    130.000     16.230    120.000     14.580     70.000      9.310     80.000     10.270    847.0085 
4    140.000     17.800    130.000     16.230     80.000     10.270     90.000     11.390    690.1765 
4    150.000     19.790    140.000     17.800     90.000     11.390    100.000     12.400    804.4651 
4    160.000     21.150    150.000     19.790    100.000     12.400    110.000     13.270    960.5244 
4    170.000     22.920    160.000     21.150    110.000     13.270    120.000     14.580    995.0605 
4    180.000     24.680    170.000     22.920    120.000     14.580    130.000     16.230   1089.1387 
4    190.000     25.870    180.000     24.680    130.000     16.230    140.000     17.800   1236.5912 
4    200.000     27.920    190.000     25.870    140.000     17.800    150.000     19.790   1247.7577 
4    210.000     28.920    200.000     27.920    150.000     19.790    160.000     21.150   1129.1337 
4    220.000     29.960    210.000     28.920    160.000     21.150    170.000     22.920   1015.2748 
4    230.000     31.100    220.000     29.960    170.000     22.920    180.000     24.680   1069.8065 
4    240.000     34.340    230.000     31.100    180.000     24.680    190.000     25.870    711.6989 
4    250.000     36.800    240.000     34.340    190.000     25.870    200.000     27.920    373.4346 
4    260.000     42.770    250.000     36.800    200.000     27.920    210.000     28.920    302.4136 
4    270.000     47.830    260.000     42.770    210.000     28.920    220.000     29.960    183.6663 
4    280.000     50.820    270.000     47.830    220.000     29.960    230.000     31.100    184.2812 
4    290.000     51.120    280.000     50.820    230.000     31.100    240.000     34.340    116.9717 
4    300.000     54.080    290.000     51.120    240.000     34.340    250.000     36.800    175.8769 
4    310.000     54.180    300.000     54.080    250.000     36.800    260.000     42.770    163.5391 
4    320.000     56.310    310.000     54.180    260.000     42.770    270.000     47.830    258.8553 
4    330.000     55.900    320.000     56.310    270.000     47.830    280.000     50.820    194.8245 
4    340.000     61.890    330.000     55.900    280.000     50.820    290.000     51.120    201.9017 
4    350.000     67.330    340.000     61.890    290.000     51.120    300.000     54.080    304.9926 
4    360.000     70.820    350.000     67.330    300.000     54.080    310.000     54.180    358.2648 
4    370.000     72.650    360.000     70.820    310.000     54.180    320.000     56.310    652.6885 
4    380.000     80.500    370.000     72.650    320.000     56.310    330.000     55.900    895.6479 
4    390.000     81.390    380.000     80.500    330.000     55.900    340.000     61.890   1156.1638 
4    400.000     81.390    390.000     81.390    340.000     61.890    350.000     67.330   1609.7219 
4     90.000     11.390     60.000      8.510      0.000      0.000     30.000      4.780   1037.5889 
4    100.000     12.400     70.000      9.310     10.000      1.130     40.000      6.260   1017.6328 
4    110.000     13.270     80.000     10.270     20.000      2.590     50.000      7.720    975.2214 
4    120.000     14.580     90.000     11.390     30.000      4.780     60.000      8.510   1022.9711 
4    130.000     16.230    100.000     12.400     40.000      6.260     70.000      9.310   1017.7233 
4    140.000     17.800    110.000     13.270     50.000      7.720     80.000     10.270    927.7940 
4    150.000     19.790    120.000     14.580     60.000      8.510     90.000     11.390    802.5274 
4    160.000     21.150    130.000     16.230     70.000      9.310    100.000     12.400    793.9829 
4    170.000     22.920    140.000     17.800     80.000     10.270    110.000     13.270    900.2604 
4    180.000     24.680    150.000     19.790     90.000     11.390    120.000     14.580    987.7017 
4    190.000     25.870    160.000     21.150    100.000     12.400    130.000     16.230   1085.1803 
4    200.000     27.920    170.000     22.920    110.000     13.270    140.000     17.800   1141.9777 
4    210.000     28.920    180.000     24.680    120.000     14.580    150.000     19.790   1215.5363 
4    220.000     29.960    190.000     25.870    130.000     16.230    160.000     21.150   1151.8398 
4    230.000     31.100    200.000     27.920    140.000     17.800    170.000     22.920   1057.9916 
4    240.000     34.340    210.000     28.920    150.000     19.790    180.000     24.680    953.9647 
4    250.000     36.800    220.000     29.960    160.000     21.150    190.000     25.870    830.2419 
4    260.000     42.770    230.000     31.100    170.000     22.920    200.000     27.920    527.7433 
4    270.000     47.830    240.000     34.340    180.000     24.680    210.000     28.920    330.1113 
4    280.000     50.820    250.000     36.800    190.000     25.870    220.000     29.960    237.0611 
4    290.000     51.120    260.000     42.770    200.000     27.920    230.000     31.100    193.8279 
4    300.000     54.080    270.000     47.830    210.000     28.920    240.000     34.340    158.9504 
4    310.000     54.180    280.000     50.820    220.000     29.960    250.000     36.800    158.7163 
4    320.000     56.310    290.000     51.120    230.000     31.100    260.000     42.770    173.7967 
4    330.000     55.900    300.000     54.080    240.000     34.340    270.000     47.830    237.3834 
4    340.000     61.890    310.000     54.180    250.000     36.800    280.000     50.820    273.4926 
4    350.000     67.330    320.000     56.310    260.000     42.770    290.000     51.120    214.4229 
4    360.000     70.820    330.000     55.900    270.000     47.830    300.000     54.080    253.4834 
4    370.000     72.650    340.000     61.890    280.000     50.820    310.000     54.180    328.4392 
4    380.000     80.500    350.000     67.330    290.000     51.120    320.000     56.310    477.7056 
4    390.000     81.390    360.000     70.820    300.000     54.080    330.000     55.900    744.8873 
4    400.000     81.390    370.000     72.650    310.000     54.180    340.000     61.890   1049.3397 
4     80.000     10.270     60.000      8.510      0.000      0.000     20.000      2.590   1064.6350 
4     90.000     11.390     70.000      9.310     10.000      1.130     30.000      4.780   1130.0504 
4    100.000     12.400     80.000     10.270     20.000      2.590     40.000      6.260   1021.0864 
4    110.000     13.270     90.000     11.390     30.000      4.780     50.000      7.720   1066.8683 
4    120.000     14.580    100.000     12.400     40.000      6.260     60.000      8.510   1163.9843 
4    130.000     16.230    110.000     13.270     50.000      7.720     70.000      9.310   1011.5109 
4    140.000     17.800    120.000     14.580     60.000      8.510     80.000     10.270    865.8174 
4    150.000     19.790    130.000     16.230     70.000      9.310     90.000     11.390    787.4304 
4    160.000     21.150    140.000     17.800     80.000     10.270    100.000     12.400    843.1436 
4    170.000     22.920    150.000     19.790     90.000     11.390    110.000     13.270    983.6226 
4    180.000     24.680    160.000     21.150    100.000     12.400    120.000     14.580   1081.0326 
4    190.000     25.870    170.000     22.920    110.000     13.270    130.000     16.230   1178.6342 
4    200.000     27.920    180.000     24.680    120.000     14.580    140.000     17.800   1230.1732 
4    210.000     28.920    190.000     25.870    130.000     16.230    150.000     19.790   1170.8907 
4    220.000     29.960    200.000     27.920    140.000     17.800    160.000     21.150   1100.2018 
4    230.000     31.100    210.000     28.920    150.000     19.790    170.000     22.920   1059.3149 
4    240.000     34.340    220.000     29.960    160.000     21.150    180.000     24.680    928.4537 
4    250.000     36.800    230.000     31.100    170.000     22.920    190.000     25.870    576.5732 
4    260.000     42.770    240.000     34.340    180.000     24.680    200.000     27.920    336.6365 
4    270.000     47.830    250.000     36.800    190.000     25.870    210.000     28.920    272.1725 
4    280.000     50.820    260.000     42.770    200.000     27.920    220.000     29.960    208.6284 
4    290.000     51.120    270.000     47.830    210.000     28.920    230.000     31.100    185.8491 
4    300.000     54.080    280.000     50.820    220.000     29.960    240.000     34.340    156.1919 
4    310.000     54.180    290.000     51.120    230.000     31.100    250.000     36.800    152.7508 
4    320.000     56.310    300.000     54.080    240.000     34.340    260.000     42.770    149.8844 
4    330.000     55.900    310.000     54.180    250.000     36.800    270.000     47.830    181.3297 
4    340.000     61.890    320.000     56.310    260.000     42.770    280.000     50.820    172.6122 
4    350.000     67.330    330.000     55.900    270.000     47.830    290.000     51.120    208.8908 
4    360.000     70.820    340.000     61.890    280.000     50.820    300.000     54.080    288.4826 
4    370.000     72.650    350.000     67.330    290.000     51.120    310.000     54.180    350.3077 
4    380.000     80.500    360.000     70.820    300.000     54.080    320.000     56.310    500.0275 
4    390.000     81.390    370.000     72.650    310.000     54.180    330.000     55.900    671.4182 
4    400.000     81.390    380.000     80.500    320.000     56.310    340.000     61.890   1018.5441 
4     70.000      9.310     60.000      8.510      0.000      0.000     10.000      1.130    969.9416 
4     80.000     10.270     70.000      9.310     10.000      1.130     20.000      2.590   1205.1304 
4     90.000     11.390     80.000     10.270     20.000      2.590     30.000      4.780   1094.3939 
4    100.000     12.400     90.000     11.390     30.000      4.780     40.000      6.260   1050.0465 
4    110.000     13.270    100.000     12.400     40.000      6.260     50.000      7.720   1202.6432 
4    120.000     14.580    110.000     13.270     50.000      7.720     60.000      8.510   1162.1289 
4    130.000     16.230    120.000     14.580     60.000      8.510     70.000      9.310    916.4965 
4    140.000     17.800    130.000     16.230     70.000      9.310     80.000     10.270    823.5465 
4    150.000     19.790    140.000     17.800     80.000     10.270     90.000     11.390    803.8270 
4    160.000     21.150    150.000     19.790     90.000     11.390    100.000     12.400    907.8474 
4    170.000     22.920    160.000     21.150    100.000     12.400    110.000     13.270   1072.6227 
4    180.000     24.680    170.000     22.920    110.000     13.270    120.000     14.580   1141.4989 
4    190.000     25.870    180.000     24.680    120.000     14.580    130.000     16.230   1285.9873 
4    200.000     27.920    190.000     25.870    130.000     16.230    140.000     17.800   1169.7422 
4    210.000     28.920    200.000     27.920    140.000     17.800    150.000     19.790   1122.3271 
4    220.000     29.960    210.000     28.920    150.000     19.790    160.000     21.150   1068.3014 
4    230.000     31.100    220.000     29.960    160.000     21.150    170.000     22.920   1090.9698 
4    240.000     34.340    230.000     31.100    170.000     22.920    180.000     24.680    684.5141 
4    250.000     36.800    240.000     34.340    180.000     24.680    190.000     25.870    376.4630 
4    260.000     42.770    250.000     36.800    190.000     25.870    200.000     27.920    270.8474 
4    270.000     47.830    260.000     42.770    200.000     27.920    210.000     28.920    240.2218 
4    280.000     50.820    270.000     47.830    210.000     28.920    220.000     29.960    193.3233 
4    290.000     51.120    280.000     50.820    220.000     29.960    230.000     31.100    177.0074 
4    300.000     54.080    290.000     51.120    230.000     31.100    240.000     34.340    136.1369 
4    310.000     54.180    300.000     54.080    240.000     34.340    250.000     36.800    152.9680 
4    320.000     56.310    310.000     54.180    250.000     36.800    260.000     42.770    124.3322 
4    330.000     55.900    320.000     56.310    260.000     42.770    270.000     47.830    139.2086 
4    340.000     61.890    330.000     55.900    270.000     47.830    280.000     50.820    185.0977 
4    350.000     67.330    340.000     61.890    280.000     50.820    290.000     51.120    251.4057 
4    360.000     70.820    350.000     67.330    290.000     51.120    300.000     54.080    318.1345 
4    370.000     72.650    360.000     70.820    300.000     54.080    310.000     54.180    386.0192 
4    380.000     80.500    370.000     72.650    310.000     54.180    320.000     56.310    482.3120 
4    390.000     81.390    380.000     80.500    320.000     56.310    330.000     55.900    658.6743 
4    400.000     81.390    390.000     81.390    330.000     55.900    340.000     61.890   1303.0679 
4    120.000     14.580     80.000     10.270      0.000      0.000     40.000      6.260   1283.5718 
4    130.000     16.230     90.000     11.390     10.000      1.130     50.000      7.720   1274.9840 
4    140.000     17.800    100.000     12.400     20.000      2.590     60.000      8.510   1236.9304 
4    150.000     19.790    110.000     13.270     30.000      4.780     70.000      9.310   1075.4199 
4    160.000     21.150    120.000     14.580     40.000      6.260     80.000     10.270    992.3839 
4    170.000     22.920    130.000     16.230     50.000      7.720     90.000     11.390    941.5278 
4    180.000     24.680    140.000     17.800     60.000      8.510    100.000     12.400    987.5358 
4    190.000     25.870    150.000     19.790     70.000      9.310    110.000     13.270   1093.1385 
4    200.000     27.920    160.000     21.150     80.000     10.270    120.000     14.580   1142.6676 
4    210.000     28.920    170.000     22.920     90.000     11.390    130.000     16.230   1185.4938 
4    220.000     29.960    180.000     24.680    100.000     12.400    140.000     17.800   1171.1379 
4    230.000     31.100    190.000     25.870    110.000     13.270    150.000     19.790   1093.5004 
4    240.000     34.340    200.000     27.920    120.000     14.580    160.000     21.150    996.1689 
4    250.000     36.800    210.000     28.920    130.000     16.230    170.000     22.920    875.3809 
4    260.000     42.770    220.000     29.960    140.000     17.800    180.000     24.680    730.5598 
4    270.000     47.830    230.000     31.100    150.000     19.790    190.000     25.870    462.6043 
4    280.000     50.820    240.000     34.340    160.000     21.150    200.000     27.920    288.2595 
4    290.000     51.120    250.000     36.800    170.000     22.920    210.000     28.920    241.3422 
4    300.000     54.080    260.000     42.770    180.000     24.680    220.000     29.960    195.5046 
4    310.000     54.180    270.000     47.830    190.000     25.870    230.000     31.100    191.6238 
4    320.000     56.310    280.000     50.820    200.000     27.920    240.000     34.340    158.8158 
4    330.000     55.900    290.000     51.120    210.000     28.920    250.000     36.800    150.8402 
4    340.000     61.890    300.000     54.080    220.000     29.960    260.000     42.770    136.7769 
4    350.000     67.330    310.000     54.180    230.000     31.100    270.000     47.830    160.7784 
4    360.000     70.820    320.000     56.310    240.000     34.340    280.000     50.820    173.7665 
4    370.000     72.650    330.000     55.900    250.000     36.800    290.000     51.120    206.3747 
4    380.000     80.500    340.000     61.890    260.000     42.770    300.000     54.080    261.1056 
4    390.000     81.390    350.000     67.330    270.000     47.830    310.000     54.180    285.1342 
4    400.000     81.390    360.000     70.820    280.000     50.820    320.000     56.310    376.4203 
4     80.000     10.270     70.000      9.310      0.000      0.000     10.000      1.130   1199.1544 
4     90.000     11.390     80.000     10.270     10.000      1.130     20.000      2.590   1261.1273 
4    100.000     12.400     90.000     11.390     20.000      2.590     30.000      4.780   1407.5989 
4    110.000     13.270    100.000     12.400     30.000      4.780     40.000      6.260   1376.2589 
4    120.000     14.580    110.000     13.270     40.000      6.260     50.000      7.720   1206.0896 
4    130.000     16.230    120.000     14.580     50.000      7.720     60.000      8.510   1096.7426 
4    140.000     17.800    130.000     16.230     60.000      8.510     70.000      9.310    902.0037 
4    150.000     19.790    140.000     17.800     70.000      9.310     80.000     10.270    972.9014 
4    160.000     21.150    150.000     19.790     80.000     10.270     90.000     11.390    919.0660 
4    170.000     22.920    160.000     21.150     90.000     11.390    100.000     12.400   1018.5245 
4    180.000     24.680    170.000     22.920    100.000     12.400    110.000     13.270   1231.8140 
4    190.000     25.870    180.000     24.680    110.000     13.270    120.000     14.580   1313.3466 
4    200.000     27.920    190.000     25.870    120.000     14.580    130.000     16.230   1207.5885 
4    210.000     28.920    200.000     27.920    130.000     16.230    140.000     17.800   1049.5742 
4    220.000     29.960    210.000     28.920    140.000     17.800    150.000     19.790   1032.2902 
4    230.000     31.100    220.000     29.960    150.000     19.790    160.000     21.150   1121.0736 
4    240.000     34.340    230.000     31.100    160.000     21.150    170.000     22.920    671.6476 
4    250.000     36.800    240.000     34.340    170.000     22.920    180.000     24.680    355.7869 
4    260.000     42.770    250.000     36.800    180.000     24.680    190.000     25.870    272.8092 
4    270.000     47.830    260.000     42.770    190.000     25.870    200.000     27.920    211.1382 
4    280.000     50.820    270.000     47.830    200.000     27.920    210.000     28.920    234.2353 
4    290.000     51.120    280.000     50.820    210.000     28.920    220.000     29.960    187.7910 
4    310.000     54.180    300.000     54.080    230.000     31.100    240.000     34.340    123.5276 
4    320.000     56.310    310.000     54.180    240.000     34.340    250.000     36.800    131.2449 
4    340.000     61.890    330.000     55.900    260.000     42.770    270.000     47.830    140.4559 
4    350.000     67.330    340.000     61.890    270.000     47.830    280.000     50.820    215.3162 
4    360.000     70.820    350.000     67.330    280.000     50.820    290.000     51.120    262.7506 
4    370.000     72.650    360.000     70.820    290.000     51.120    300.000     54.080    330.1332 
4    380.000     80.500    370.000     72.650    300.000     54.080    310.000     54.180    262.4171 
4    390.000     81.390    380.000     80.500    310.000     54.180    320.000     56.310    354.3766 
4    400.000     81.390    390.000     81.390    320.000     56.310    330.000     55.900    753.9698 
4    100.000     12.400     80.000     10.270      0.000      0.000     20.000      2.590   1377.3748 
4    110.000     13.270     90.000     11.390     10.000      1.130     30.000      4.780   1627.6931 
4    120.000     14.580    100.000     12.400     20.000      2.590     40.000      6.260   1516.2432 
4    130.000     16.230    110.000     13.270     30.000      4.780     50.000      7.720   1222.2505 
4    140.000     17.800    120.000     14.580     40.000      6.260     60.000      8.510   1087.0350 
4    150.000     19.790    130.000     16.230     50.000      7.720     70.000      9.310   1033.8831 
4    160.000     21.150    140.000     17.800     60.000      8.510     80.000     10.270   1062.9679 
4    170.000     22.920    150.000     19.790     70.000      9.310     90.000     11.390   1042.2635 
4    180.000     24.680    160.000     21.150     80.000     10.270    100.000     12.400   1088.2904 
4    190.000     25.870    170.000     22.920     90.000     11.390    110.000     13.270   1280.0959 
4    200.000     27.920    180.000     24.680    100.000     12.400    120.000     14.580   1288.4991 
4    210.000     28.920    190.000     25.870    110.000     13.270    130.000     16.230   1120.1198 
4    220.000     29.960    200.000     27.920    120.000     14.580    140.000     17.800    984.6933 
4    230.000     31.100    210.000     28.920    130.000     16.230    150.000     19.790    979.5964 
4    240.000     34.340    220.000     29.960    140.000     17.800    160.000     21.150    900.5149 
4    250.000     36.800    230.000     31.100    150.000     19.790    170.000     22.920    522.4003 
4    260.000     42.770    240.000     34.340    160.000     21.150    180.000     24.680    310.3051 
4    270.000     47.830    250.000     36.800    170.000     22.920    190.000     25.870    247.9852 
4    280.000     50.820    260.000     42.770    180.000     24.680    200.000     27.920    217.0564 
4    290.000     51.120    270.000     47.830    190.000     25.870    210.000     28.920    240.7164 
4    300.000     54.080    280.000     50.820    200.000     27.920    220.000     29.960    173.5622 
4    310.000     54.180    290.000     51.120    210.000     28.920    230.000     31.100    192.7084 
4    320.000     56.310    300.000     54.080    220.000     29.960    240.000     34.340    119.4432 
4    330.000     55.900    310.000     54.180    230.000     31.100    250.000     36.800    101.8675 
4    340.000     61.890    320.000     56.310    240.000     34.340    260.000     42.770    117.8568 
4    350.000     67.330    330.000     55.900    250.000     36.800    270.000     47.830    149.4125 
4    360.000     70.820    340.000     61.890    260.000     42.770    280.000     50.820    222.4142 
4    370.000     72.650    350.000     67.330    270.000     47.830    290.000     51.120    255.3934 
4    380.000     80.500    360.000     70.820    280.000     50.820    300.000     54.080    278.4649 
4    390.000     81.390    370.000     72.650    290.000     51.120    310.000     54.180    225.0826 
4    400.000     81.390    380.000     80.500    300.000     54.080    320.000     56.310    291.7365 
4     90.000     11.390     80.000     10.270      0.000      0.000     10.000      1.130   1281.6989 
4    100.000     12.400     90.000     11.390     10.000      1.130     20.000      2.590   1614.7766 
4    110.000     13.270    100.000     12.400     20.000      2.590     30.000      4.780   1754.5559 
4    120.000     14.580    110.000     13.270     30.000      4.780     40.000      6.260   1354.5747 
4    130.000     16.230    120.000     14.580     40.000      6.260     50.000      7.720   1123.6619 
4    140.000     17.800    130.000     16.230     50.000      7.720     60.000      8.510   1061.8314 
4    150.000     19.790    140.000     17.800     60.000      8.510     70.000      9.310   1052.4137 
4    160.000     21.150    150.000     19.790     70.000      9.310     80.000     10.270   1111.0171 
4    170.000     22.920    160.000     21.150     80.000     10.270     90.000     11.390   1028.2643 
4    180.000     24.680    170.000     22.920     90.000     11.390    100.000     12.400   1167.2407 
4    190.000     25.870    180.000     24.680    100.000     12.400    110.000     13.270   1423.3401 
4    200.000     27.920    190.000     25.870    110.000     13.270    120.000     14.580   1168.1433 
4    210.000     28.920    200.000     27.920    120.000     14.580    130.000     16.230   1010.7523 
4    220.000     29.960    210.000     28.920    130.000     16.230    140.000     17.800    941.6701 
4    230.000     31.100    220.000     29.960    140.000     17.800    150.000     19.790   1024.8109 
4    240.000     34.340    230.000     31.100    150.000     19.790    160.000     21.150    647.1251 
4    250.000     36.800    240.000     34.340    160.000     21.150    170.000     22.920    330.3829 
4    260.000     42.770    250.000     36.800    170.000     22.920    180.000     24.680    262.2381 
4    270.000     47.830    260.000     42.770    180.000     24.680    190.000     25.870    246.0498 
4    280.000     50.820    270.000     47.830    190.000     25.870    200.000     27.920    193.7672 
4    290.000     51.120    280.000     50.820    200.000     27.920    210.000     28.920    214.7246 
4    300.000     54.080    290.000     51.120    210.000     28.920    220.000     29.960    224.6665 
4    320.000     56.310    310.000     54.180    230.000     31.100    240.000     34.340     93.3840 
4    340.000     61.890    330.000     55.900    250.000     36.800    260.000     42.770    101.1314 
4    350.000     67.330    340.000     61.890    260.000     42.770    270.000     47.830    204.7399 
4    360.000     70.820    350.000     67.330    270.000     47.830    280.000     50.820    237.9050 
4    370.000     72.650    360.000     70.820    280.000     50.820    290.000     51.120    282.8773 
4    380.000     80.500    370.000     72.650    290.000     51.120    300.000     54.080    229.1110 
4    390.000     81.390    380.000     80.500    300.000     54.080    310.000     54.180    205.2893 
4    400.000     81.390    390.000     81.390    310.000     54.180    320.000     56.310    340.3866 
4    150.000     19.790    100.000     12.400      0.000      0.000     50.000      7.720   1437.2504 
4    160.000     21.150    110.000     13.270     10.000      1.130     60.000      8.510   1310.6663 
4    170.000     22.920    120.000     14.580     20.000      2.590     70.000      9.310   1183.2809 
4    180.000     24.680    130.000     16.230     30.000      4.780     80.000     10.270   1154.4316 
4    190.000     25.870    140.000     17.800     40.000      6.260     90.000     11.390   1174.1011 
4    200.000     27.920    150.000     19.790     50.000      7.720    100.000     12.400   1190.3306 
4    210.000     28.920    160.000     21.150     60.000      8.510    110.000     13.270   1217.4457 
4    220.000     29.960    170.000     22.920     70.000      9.310    120.000     14.580   1204.1096 
4    230.000     31.100    180.000     24.680     80.000     10.270    130.000     16.230   1151.5571 
4    240.000     34.340    190.000     25.870     90.000     11.390    140.000     17.800   1002.6645 
4    250.000     36.800    200.000     27.920    100.000     12.400    150.000     19.790    878.9359 
4    260.000     42.770    210.000     28.920    110.000     13.270    160.000     21.150    764.2873 
4    270.000     47.830    220.000     29.960    120.000     14.580    170.000     22.920    622.1522 
4    280.000     50.820    230.000     31.100    130.000     16.230    180.000     24.680    392.7107 
4    290.000     51.120    240.000     34.340    140.000     17.800    190.000     25.870    250.3259 
4    300.000     54.080    250.000     36.800    150.000     19.790    200.000     27.920    215.3939 
4    310.000     54.180    260.000     42.770    160.000     21.150    210.000     28.920    199.2078 
4    320.000     56.310    270.000     47.830    170.000     22.920    220.000     29.960    193.1787 
4    330.000     55.900    280.000     50.820    180.000     24.680    230.000     31.100    184.9019 
4    340.000     61.890    290.000     51.120    190.000     25.870    240.000     34.340    170.0183 
4    350.000     67.330    300.000     54.080    200.000     27.920    250.000     36.800    170.4292 
4    360.000     70.820    310.000     54.180    210.000     28.920    260.000     42.770    161.6519 
4    370.000     72.650    320.000     56.310    220.000     29.960    270.000     47.830    175.0935 
4    380.000     80.500    330.000     55.900    230.000     31.100    280.000     50.820    188.7783 
4    390.000     81.390    340.000     61.890    240.000     34.340    290.000     51.120    214.3195 
4    400.000     81.390    350.000     67.330    250.000     36.800    300.000     54.080    233.2369 
4    120.000     14.580     90.000     11.390      0.000      0.000     30.000      4.780   1677.4099 
4    130.000     16.230    100.000     12.400     10.000      1.130     40.000      6.260   1570.9038 
4    140.000     17.800    110.000     13.270     20.000      2.590     50.000      7.720   1292.2185 
4    150.000     19.790    120.000     14.580     30.000      4.780     60.000      8.510   1148.8767 
4    160.000     21.150    130.000     16.230     40.000      6.260     70.000      9.310   1111.5432 
4    170.000     22.920    140.000     17.800     50.000      7.720     80.000     10.270   1166.1692 
4    180.000     24.680    150.000     19.790     60.000      8.510     90.000     11.390   1149.9895 
4    190.000     25.870    160.000     21.150     70.000      9.310    100.000     12.400   1200.5374 
4    200.000     27.920    170.000     22.920     80.000     10.270    110.000     13.270   1259.1624 
4    210.000     28.920    180.000     24.680     90.000     11.390    120.000     14.580   1233.7246 
4    220.000     29.960    190.000     25.870    100.000     12.400    130.000     16.230   1088.4691 
4    230.000     31.100    200.000     27.920    110.000     13.270    140.000     17.800    954.4442 
4    240.000     34.340    210.000     28.920    120.000     14.580    150.000     19.790    857.0697 
4    250.000     36.800    220.000     29.960    130.000     16.230    160.000     21.150    729.2562 
4    260.000     42.770    230.000     31.100    140.000     17.800    170.000     22.920    448.8290 
4    270.000     47.830    240.000     34.340    150.000     19.790    180.000     24.680    269.1490 
4    280.000     50.820    250.000     36.800    160.000     21.150    190.000     25.870    223.1300 
4    290.000     51.120    260.000     42.770    170.000     22.920    200.000     27.920    186.7242 
4    300.000     54.080    270.000     47.830    180.000     24.680    210.000     28.920    174.5243 
4    310.000     54.180    280.000     50.820    190.000     25.870    220.000     29.960    189.1904 
4    320.000     56.310    290.000     51.120    200.000     27.920    230.000     31.100    193.3173 
4    330.000     55.900    300.000     54.080    210.000     28.920    240.000     34.340    126.8581 
4    340.000     61.890    310.000     54.180    220.000     29.960    250.000     36.800    129.2728 
4    350.000     67.330    320.000     56.310    230.000     31.100    260.000     42.770    136.3180 
4    360.000     70.820    330.000     55.900    240.000     34.340    270.000     47.830    177.5526 
4    370.000     72.650    340.000     61.890    250.000     36.800    280.000     50.820    205.6286 
4    380.000     80.500    350.000     67.330    260.000     42.770    290.000     51.120    227.0519 
4    390.000     81.390    360.000     70.820    270.000     47.830    300.000     54.080    224.6330 
4    400.000     81.390    370.000     72.650    280.000     50.820    310.000     54.180    200.6962 
4    100.000     12.400     90.000     11.390      0.000      0.000     10.000      1.130   1417.9082 
4    110.000     13.270    100.000     12.400     10.000      1.130     20.000      2.590   1940.7616 
4    120.000     14.580    110.000     13.270     20.000      2.590     30.000      4.780   1707.2360 
4    130.000     16.230    120.000     14.580     30.000      4.780     40.000      6.260   1224.6519 
4    140.000     17.800    130.000     16.230     40.000      6.260     50.000      7.720   1075.2820 
4    150.000     19.790    140.000     17.800     50.000      7.720     60.000      8.510   1240.1462 
4    160.000     21.150    150.000     19.790     60.000      8.510     70.000      9.310   1183.7017 
4    170.000     22.920    160.000     21.150     70.000      9.310     80.000     10.270   1268.0293 
4    180.000     24.680    170.000     22.920     80.000     10.270     90.000     11.390   1185.9591 
4    190.000     25.870    180.000     24.680     90.000     11.390    100.000     12.400   1329.3506 
4    200.000     27.920    190.000     25.870    100.000     12.400    110.000     13.270   1200.0193 
4    210.000     28.920    200.000     27.920    110.000     13.270    120.000     14.580   1006.1953 
4    220.000     29.960    210.000     28.920    120.000     14.580    130.000     16.230    895.3419 
4    230.000     31.100    220.000     29.960    130.000     16.230    140.000     17.800    865.2195 
4    240.000     34.340    230.000     31.100    140.000     17.800    150.000     19.790    591.0897 
4    250.000     36.800    240.000     34.340    150.000     19.790    160.000     21.150    268.9658 
4    260.000     42.770    250.000     36.800    160.000     21.150    170.000     22.920    261.3860 
4    270.000     47.830    260.000     42.770    170.000     22.920    180.000     24.680    175.4486 
4    280.000     50.820    270.000     47.830    180.000     24.680    190.000     25.870    207.3511 
4    310.000     54.180    300.000     54.080    210.000     28.920    220.000     29.960    140.3798 
4    320.000     56.310    310.000     54.180    220.000     29.960    230.000     31.100    135.6243 
4    330.000     55.900    320.000     56.310    230.000     31.100    240.000     34.340     98.9009 
4    360.000     70.820    350.000     67.330    260.000     42.770    270.000     47.830    239.6714 
4    370.000     72.650    360.000     70.820    270.000     47.830    280.000     50.820    241.6460 
4    390.000     81.390    380.000     80.500    290.000     51.120    300.000     54.080    163.3759 
4    120.000     14.580    100.000     12.400      0.000      0.000     20.000      2.590   1936.9276 
4    130.000     16.230    110.000     13.270     10.000      1.130     30.000      4.780   1711.3286 
4    140.000     17.800    120.000     14.580     20.000      2.590     40.000      6.260   1342.1185 
4    150.000     19.790    130.000     16.230     30.000      4.780     50.000      7.720   1186.8661 
4    160.000     21.150    140.000     17.800     40.000      6.260     60.000      8.510   1296.0427 
4    170.000     22.920    150.000     19.790     50.000      7.720     70.000      9.310   1330.0925 
4    180.000     24.680    160.000     21.150     60.000      8.510     80.000     10.270   1365.1829 
4    190.000     25.870    170.000     22.920     70.000      9.310     90.000     11.390   1367.0829 
4    200.000     27.920    180.000     24.680     80.000     10.270    100.000     12.400   1271.5232 
4    210.000     28.920    190.000     25.870     90.000     11.390    110.000     13.270   1154.8595 
4    220.000     29.960    200.000     27.920    100.000     12.400    120.000     14.580   1018.9316 
4    230.000     31.100    210.000     28.920    110.000     13.270    130.000     16.230    881.3073 
4    240.000     34.340    220.000     29.960    120.000     14.580    140.000     17.800    692.5214 
4    250.000     36.800    230.000     31.100    130.000     16.230    150.000     19.790    446.4600 
4    260.000     42.770    240.000     34.340    140.000     17.800    160.000     21.150    272.0096 
4    270.000     47.830    250.000     36.800    150.000     19.790    170.000     22.920    204.0057 
4    280.000     50.820    260.000     42.770    160.000     21.150    180.000     24.680    154.0544 
4    310.000     54.180    290.000     51.120    190.000     25.870    210.000     28.920    180.6903 
4    330.000     55.900    310.000     54.180    210.000     28.920    230.000     31.100    153.1308 
4    340.000     61.890    320.000     56.310    220.000     29.960    240.000     34.340    149.3624 
4    350.000     67.330    330.000     55.900    230.000     31.100    250.000     36.800    206.4147 
4    360.000     70.820    340.000     61.890    240.000     34.340    260.000     42.770    198.0787 
4    370.000     72.650    350.000     67.330    250.000     36.800    270.000     47.830    210.8021 
4    390.000     81.390    370.000     72.650    270.000     47.830    290.000     51.120    143.1096 
4    160.000     21.150    120.000     14.580      0.000      0.000     40.000      6.260   1530.3186 
4    170.000     22.920    130.000     16.230     10.000      1.130     50.000      7.720   1472.3403 
4    180.000     24.680    140.000     17.800     20.000      2.590     60.000      8.510   1513.5227 
4    190.000     25.870    150.000     19.790     30.000      4.780     70.000      9.310   1522.2418 
4    200.000     27.920    160.000     21.150     40.000      6.260     80.000     10.270   1520.0100 
4    210.000     28.920    170.000     22.920     50.000      7.720     90.000     11.390   1416.7025 
4    220.000     29.960    180.000     24.680     60.000      8.510    100.000     12.400   1253.2994 
4    230.000     31.100    190.000     25.870     70.000      9.310    110.000     13.270   1093.0782 
4    240.000     34.340    200.000     27.920     80.000     10.270    120.000     14.580    901.6633 
4    250.000     36.800    210.000     28.920     90.000     11.390    130.000     16.230    716.2318 
4    260.000     42.770    220.000     29.960    100.000     12.400    140.000     17.800    532.7186 
4    270.000     47.830    230.000     31.100    110.000     13.270    150.000     19.790    333.3205 
4    280.000     50.820    240.000     34.340    120.000     14.580    160.000     21.150    222.5843 
4    290.000     51.120    250.000     36.800    130.000     16.230    170.000     22.920    190.5123 
4    300.000     54.080    260.000     42.770    140.000     17.800    180.000     24.680    174.5725 
4    310.000     54.180    270.000     47.830    150.000     19.790    190.000     25.870    175.8872 
4    320.000     56.310    280.000     50.820    160.000     21.150    200.000     27.920    174.5460 
4    330.000     55.900    290.000     51.120    170.000     22.920    210.000     28.920    192.2395 
4    340.000     61.890    300.000     54.080    180.000     24.680    220.000     29.960    218.0797 
4    350.000     67.330    310.000     54.180    190.000     25.870    230.000     31.100    238.2484 
4    360.000     70.820    320.000     56.310    200.000     27.920    240.000     34.340    252.9276 
4    370.000     72.650    330.000     55.900    210.000     28.920    250.000     36.800    287.0667 
4    380.000     80.500    340.000     61.890    220.000     29.960    260.000     42.770    246.0817 
4    390.000     81.390    350.000     67.330    230.000     31.100    270.000     47.830    204.1003 
4    400.000     81.390    360.000     70.820    240.000     34.340    280.000     50.820    190.3151 
4    150.000     19.790    120.000     14.580      0.000      0.000     30.000      4.780   1622.1268 
4    160.000     21.150    130.000     16.230     10.000      1.130     40.000      6.260   1538.9211 
4    170.000     22.920    140.000     17.800     20.000      2.590     50.000      7.720   1503.5272 
4    180.000     24.680    150.000     19.790     30.000      4.780     60.000      8.510   1541.4036 
4    190.000     25.870    160.000     21.150     40.000      6.260     70.000      9.310   1599.1285 
4    200.000     27.920    170.000     22.920     50.000      7.720     80.000     10.270   1583.7528 
4    210.000     28.920    180.000     24.680     60.000      8.510     90.000     11.390   1357.2245 
4    220.000     29.960    190.000     25.870     70.000      9.310    100.000     12.400   1114.9418 
4    230.000     31.100    200.000     27.920     80.000     10.270    110.000     13.270    995.1887 
4    240.000     34.340    210.000     28.920     90.000     11.390    120.000     14.580    827.4088 
4    250.000     36.800    220.000     29.960    100.000     12.400    130.000     16.230    602.1812 
4    260.000     42.770    230.000     31.100    110.000     13.270    140.000     17.800    346.9606 
4    270.000     47.830    240.000     34.340    120.000     14.580    150.000     19.790    223.8717 
4    280.000     50.820    250.000     36.800    130.000     16.230    160.000     21.150    188.3229 
4    290.000     51.120    260.000     42.770    140.000     17.800    170.000     22.920    172.5905 
4    300.000     54.080    270.000     47.830    150.000     19.790    180.000     24.680    189.2039 
4    310.000     54.180    280.000     50.820    160.000     21.150    190.000     25.870    172.2631 
4    320.000     56.310    290.000     51.120    170.000     22.920    200.000     27.920    183.7046 
4    340.000     61.890    310.000     54.180    190.000     25.870    220.000     29.960    220.2050 
4    350.000     67.330    320.000     56.310    200.000     27.920    230.000     31.100    270.9128 
4    360.000     70.820    330.000     55.900    210.000     28.920    240.000     34.340    296.0413 
4    370.000     72.650    340.000     61.890    220.000     29.960    250.000     36.800    300.3984 
4    380.000     80.500    350.000     67.330    230.000     31.100    260.000     42.770    222.5648 
4    390.000     81.390    360.000     70.820    240.000     34.340    270.000     47.830    186.5818 
4    400.000     81.390    370.000     72.650    250.000     36.800    280.000     50.820    172.3479 
4    140.000     17.800    120.000     14.580      0.000      0.000     20.000      2.590   1622.3265 
4    150.000     19.790    130.000     16.230     10.000      1.130     30.000      4.780   1634.5317 
4    160.000     21.150    140.000     17.800     20.000      2.590     40.000      6.260   1560.5359 
4    170.000     22.920    150.000     19.790     30.000      4.780     50.000      7.720   1480.1406 
4    180.000     24.680    160.000     21.150     40.000      6.260     60.000      8.510   1602.6533 
4    190.000     25.870    170.000     22.920     50.000      7.720     70.000      9.310   1691.6910 
4    200.000     27.920    180.000     24.680     60.000      8.510     80.000     10.270   1555.6143 
4    210.000     28.920    190.000     25.870     70.000      9.310     90.000     11.390   1216.7338 
4    220.000     29.960    200.000     27.920     80.000     10.270    100.000     12.400    968.3912 
4    230.000     31.100    210.000     28.920     90.000     11.390    110.000     13.270    957.4594 
4    240.000     34.340    220.000     29.960    100.000     12.400    120.000     14.580    753.5342 
4    250.000     36.800    230.000     31.100    110.000     13.270    130.000     16.230    392.3546 
4    260.000     42.770    240.000     34.340    120.000     14.580    140.000     17.800    245.0043 
4    270.000     47.830    250.000     36.800    130.000     16.230    150.000     19.790    190.2595 
4    280.000     50.820    260.000     42.770    140.000     17.800    160.000     21.150    176.6505 
4    290.000     51.120    270.000     47.830    150.000     19.790    170.000     22.920    203.5795 
4    310.000     54.180    290.000     51.120    170.000     22.920    190.000     25.870    181.7120 
4    320.000     56.310    300.000     54.080    180.000     24.680    200.000     27.920    175.6042 
4    330.000     55.900    310.000     54.180    190.000     25.870    210.000     28.920    222.9731 
4    340.000     61.890    320.000     56.310    200.000     27.920    220.000     29.960    229.8436 
4    350.000     67.330    330.000     55.900    210.000     28.920    230.000     31.100    337.0042 
4    360.000     70.820    340.000     61.890    220.000     29.960    240.000     34.340    321.6826 
4    370.000     72.650    350.000     67.330    230.000     31.100    250.000     36.800    268.5871 
4    380.000     80.500    360.000     70.820    240.000     34.340    260.000     42.770    213.9189 
4    390.000     81.390    370.000     72.650    250.000     36.800    270.000     47.830    144.0900 
4    160.000     21.150    140.000     17.800      0.000      0.000     20.000      2.590   1857.8820 
4    170.000     22.920    150.000     19.790     10.000      1.130     30.000      4.780   1988.0427 
4    180.000     24.680    160.000     21.150     20.000      2.590     40.000      6.260   1886.8933 
4    190.000     25.870    170.000     22.920     30.000      4.780     50.000      7.720   1812.5070 
4    200.000     27.920    180.000     24.680     40.000      6.260     60.000      8.510   1750.8761 
4    210.000     28.920    190.000     25.870     50.000      7.720     70.000      9.310   1426.1010 
4    220.000     29.960    200.000     27.920     60.000      8.510     80.000     10.270   1179.7445 
4    230.000     31.100    210.000     28.920     70.000      9.310     90.000     11.390    975.6006 
4    240.000     34.340    220.000     29.960     80.000     10.270    100.000     12.400    714.5040 
4    250.000     36.800    230.000     31.100     90.000     11.390    110.000     13.270    393.8119 
4    260.000     42.770    240.000     34.340    100.000     12.400    120.000     14.580    247.0426 
4    270.000     47.830    250.000     36.800    110.000     13.270    130.000     16.230    163.6389 
4    280.000     50.820    260.000     42.770    120.000     14.580    140.000     17.800    143.7438 
4    290.000     51.120    270.000     47.830    130.000     16.230    150.000     19.790    137.3508 
4    300.000     54.080    280.000     50.820    140.000     17.800    160.000     21.150    156.6702 
4    310.000     54.180    290.000     51.120    150.000     19.790    170.000     22.920    167.9771 
4    320.000     56.310    300.000     54.080    160.000     21.150    180.000     24.680    157.6208 
4    330.000     55.900    310.000     54.180    170.000     22.920    190.000     25.870    155.3313 
4    340.000     61.890    320.000     56.310    180.000     24.680    200.000     27.920    234.5235 
4    350.000     67.330    330.000     55.900    190.000     25.870    210.000     28.920    365.6407 
4    360.000     70.820    340.000     61.890    200.000     27.920    220.000     29.960    469.6549 
4    370.000     72.650    350.000     67.330    210.000     28.920    230.000     31.100    456.5172 
4    380.000     80.500    360.000     70.820    220.000     29.960    240.000     34.340    323.2678 
4    390.000     81.390    370.000     72.650    230.000     31.100    250.000     36.800    177.0037 
4    400.000     81.390    380.000     80.500    240.000     34.340    260.000     42.770    173.5023 
4    200.000     27.920    150.000     19.790      0.000      0.000     50.000      7.720   1850.4270 
4    210.000     28.920    160.000     21.150     10.000      1.130     60.000      8.510   1797.9686 
4    220.000     29.960    170.000     22.920     20.000      2.590     70.000      9.310   1637.7662 
4    230.000     31.100    180.000     24.680     30.000      4.780     80.000     10.270   1437.0751 
4    240.000     34.340    190.000     25.870     40.000      6.260     90.000     11.390   1121.0698 
4    250.000     36.800    200.000     27.920     50.000      7.720    100.000     12.400    877.2923 
4    260.000     42.770    210.000     28.920     60.000      8.510    110.000     13.270    678.5727 
4    270.000     47.830    220.000     29.960     70.000      9.310    120.000     14.580    492.1016 
4    280.000     50.820    230.000     31.100     80.000     10.270    130.000     16.230    282.6031 
4    290.000     51.120    240.000     34.340     90.000     11.390    140.000     17.800    190.8940 
4    300.000     54.080    250.000     36.800    100.000     12.400    150.000     19.790    174.3927 
4    310.000     54.180    260.000     42.770    110.000     13.270    160.000     21.150    140.4416 
4    320.000     56.310    270.000     47.830    120.000     14.580    170.000     22.920    144.2006 
4    330.000     55.900    280.000     50.820    130.000     16.230    180.000     24.680    148.7660 
4    340.000     61.890    290.000     51.120    140.000     17.800    190.000     25.870    179.3973 
4    350.000     67.330    300.000     54.080    150.000     19.790    200.000     27.920    220.5662 
4    360.000     70.820    310.000     54.180    160.000     21.150    210.000     28.920    297.0882 
4    370.000     72.650    320.000     56.310    170.000     22.920    220.000     29.960    350.6805 
4    380.000     80.500    330.000     55.900    180.000     24.680    230.000     31.100    398.6191 
4    390.000     81.390    340.000     61.890    190.000     25.870    240.000     34.340    363.1883 
4    400.000     81.390    350.000     67.330    200.000     27.920    250.000     36.800    320.9246 
4    180.000     24.680    150.000     19.790      0.000      0.000     30.000      4.780   2061.2217 
4    190.000     25.870    160.000     21.150     10.000      1.130     40.000      6.260   2068.4937 
4    200.000     27.920    170.000     22.920     20.000      2.590     50.000      7.720   1889.7095 
4    210.000     28.920    180.000     24.680     30.000      4.780     60.000      8.510   1681.1014 
4    220.000     29.960    190.000     25.870     40.000      6.260     70.000      9.310   1362.5515 
4    230.000     31.100    200.000     27.920     50.000      7.720     80.000     10.270   1163.5907 
4    240.000     34.340    210.000     28.920     60.000      8.510     90.000     11.390    858.9606 
4    250.000     36.800    220.000     29.960     70.000      9.310    100.000     12.400    612.9955 
4    260.000     42.770    230.000     31.100     80.000     10.270    110.000     13.270    340.2205 
4    270.000     47.830    240.000     34.340     90.000     11.390    120.000     14.580    212.3391 
4    280.000     50.820    250.000     36.800    100.000     12.400    130.000     16.230    161.1513 
4    290.000     51.120    260.000     42.770    110.000     13.270    140.000     17.800    133.5046 
4    300.000     54.080    270.000     47.830    120.000     14.580    150.000     19.790    130.0959 
4    310.000     54.180    280.000     50.820    130.000     16.230    160.000     21.150    136.4655 
4    320.000     56.310    290.000     51.120    140.000     17.800    170.000     22.920    149.3032 
4    330.000     55.900    300.000     54.080    150.000     19.790    180.000     24.680    155.1503 
4    340.000     61.890    310.000     54.180    160.000     21.150    190.000     25.870    184.2944 
4    350.000     67.330    320.000     56.310    170.000     22.920    200.000     27.920    290.9440 
4    360.000     70.820    330.000     55.900    180.000     24.680    210.000     28.920    414.6273 
4    370.000     72.650    340.000     61.890    190.000     25.870    220.000     29.960    478.1179 
4    380.000     80.500    350.000     67.330    200.000     27.920    230.000     31.100    434.8072 
4    390.000     81.390    360.000     70.820    210.000     28.920    240.000     34.340    318.5839 
4    400.000     81.390    370.000     72.650    220.000     29.960    250.000     36.800    221.0114 
4    200.000     27.920    160.000     21.150      0.000      0.000     40.000      6.260   2059.7891 
4    210.000     28.920    170.000     22.920     10.000      1.130     50.000      7.720   1895.3455 
4    220.000     29.960    180.000     24.680     20.000      2.590     60.000      8.510   1659.5828 
4    230.000     31.100    190.000     25.870     30.000      4.780     70.000      9.310   1336.3582 
4    240.000     34.340    200.000     27.920     40.000      6.260     80.000     10.270   1062.6173 
4    250.000     36.800    210.000     28.920     50.000      7.720     90.000     11.390    772.7263 
4    260.000     42.770    220.000     29.960     60.000      8.510    100.000     12.400    540.8654 
4    270.000     47.830    230.000     31.100     70.000      9.310    110.000     13.270    308.8477 
4    280.000     50.820    240.000     34.340     80.000     10.270    120.000     14.580    200.9295 
4    290.000     51.120    250.000     36.800     90.000     11.390    130.000     16.230    153.2461 
4    300.000     54.080    260.000     42.770    100.000     12.400    140.000     17.800    158.4396 
4    310.000     54.180    270.000     47.830    110.000     13.270    150.000     19.790    126.6826 
4    320.000     56.310    280.000     50.820    120.000     14.580    160.000     21.150    130.6025 
4    330.000     55.900    290.000     51.120    130.000     16.230    170.000     22.920    145.3821 
4    340.000     61.890    300.000     54.080    140.000     17.800    180.000     24.680    174.6110 
4    350.000     67.330    310.000     54.180    150.000     19.790    190.000     25.870    244.4938 
4    360.000     70.820    320.000     56.310    160.000     21.150    200.000     27.920    331.0660 
4    370.000     72.650    330.000     55.900    170.000     22.920    210.000     28.920    434.2297 
4    380.000     80.500    340.000     61.890    180.000     24.680    220.000     29.960    466.0259 
4    390.000     81.390    350.000     67.330    190.000     25.870    230.000     31.100    420.5072 
4    400.000     81.390    360.000     70.820    200.000     27.920    240.000     34.340    333.0943 
4    210.000     28.920    180.000     24.680      0.000      0.000     30.000      4.780   2115.9070 
4    220.000     29.960    190.000     25.870     10.000      1.130     40.000      6.260   1720.4384 
4    230.000     31.100    200.000     27.920     20.000      2.590     50.000      7.720   1320.3920 
4    240.000     34.340    210.000     28.920     30.000      4.780     60.000      8.510    984.7566 
4    250.000     36.800    220.000     29.960     40.000      6.260     70.000      9.310    696.6776 
4    260.000     42.770    230.000     31.100     50.000      7.720     80.000     10.270    385.9783 
4    270.000     47.830    240.000     34.340     60.000      8.510     90.000     11.390    222.8939 
4    280.000     50.820    250.000     36.800     70.000      9.310    100.000     12.400    180.0673 
4    290.000     51.120    260.000     42.770     80.000     10.270    110.000     13.270    130.0222 
4    300.000     54.080    270.000     47.830     90.000     11.390    120.000     14.580    130.6702 
4    310.000     54.180    280.000     50.820    100.000     12.400    130.000     16.230    122.9772 
4    320.000     56.310    290.000     51.120    110.000     13.270    140.000     17.800    122.5901 
4    330.000     55.900    300.000     54.080    120.000     14.580    150.000     19.790    118.8915 
4    340.000     61.890    310.000     54.180    130.000     16.230    160.000     21.150    162.9955 
4    350.000     67.330    320.000     56.310    140.000     17.800    170.000     22.920    268.7323 
4    360.000     70.820    330.000     55.900    150.000     19.790    180.000     24.680    409.0439 
4    370.000     72.650    340.000     61.890    160.000     21.150    190.000     25.870    497.9636 
4    380.000     80.500    350.000     67.330    170.000     22.920    200.000     27.920    459.1059 
4    390.000     81.390    360.000     70.820    180.000     24.680    210.000     28.920    385.1371 
4    400.000     81.390    370.000     72.650    190.000     25.870    220.000     29.960    339.4690 
4    250.000     36.800    200.000     27.920      0.000      0.000     50.000      7.720   1115.4319 
4    260.000     42.770    210.000     28.920     10.000      1.130     60.000      8.510    830.5313 
4    270.000     47.830    220.000     29.960     20.000      2.590     70.000      9.310    568.1246 
4    280.000     50.820    230.000     31.100     30.000      4.780     80.000     10.270    322.8891 
4    290.000     51.120    240.000     34.340     40.000      6.260     90.000     11.390    208.8088 
4    300.000     54.080    250.000     36.800     50.000      7.720    100.000     12.400    130.0318 
4    310.000     54.180    260.000     42.770     60.000      8.510    110.000     13.270    150.5929 
4    320.000     56.310    270.000     47.830     70.000      9.310    120.000     14.580    132.9478 
4    330.000     55.900    280.000     50.820     80.000     10.270    130.000     16.230    133.8705 
4    340.000     61.890    290.000     51.120     90.000     11.390    140.000     17.800    146.8107 
4    350.000     67.330    300.000     54.080    100.000     12.400    150.000     19.790    187.8726 
4    360.000     70.820    310.000     54.180    110.000     13.270    160.000     21.150    257.2738 
4    370.000     72.650    320.000     56.310    120.000     14.580    170.000     22.920    322.3849 
4    380.000     80.500    330.000     55.900    130.000     16.230    180.000     24.680    400.1921 
4    390.000     81.390    340.000     61.890    140.000     17.800    190.000     25.870    437.9119 
4    400.000     81.390    350.000     67.330    150.000     19.790    200.000     27.920    430.1931 
4    240.000     34.340    200.000     27.920      0.000      0.000     40.000      6.260   1306.9332 
4    250.000     36.800    210.000     28.920     10.000      1.130     50.000      7.720    962.0210 
4    260.000     42.770    220.000     29.960     20.000      2.590     60.000      8.510    637.1497 
4    270.000     47.830    230.000     31.100     30.000      4.780     70.000      9.310    348.4634 
4    280.000     50.820    240.000     34.340     40.000      6.260     80.000     10.270    219.0891 
4    290.000     51.120    250.000     36.800     50.000      7.720     90.000     11.390    167.3433 
4    310.000     54.180    270.000     47.830     70.000      9.310    110.000     13.270    140.1679 
4    320.000     56.310    280.000     50.820     80.000     10.270    120.000     14.580    135.2576 
4    330.000     55.900    290.000     51.120     90.000     11.390    130.000     16.230    131.5025 
4    340.000     61.890    300.000     54.080    100.000     12.400    140.000     17.800    145.3167 
4    350.000     67.330    310.000     54.180    110.000     13.270    150.000     19.790    207.6935 
4    360.000     70.820    320.000     56.310    120.000     14.580    160.000     21.150    294.2717 
4    370.000     72.650    330.000     55.900    130.000     16.230    170.000     22.920    393.0796 
4    380.000     80.500    340.000     61.890    140.000     17.800    180.000     24.680    457.6190 
4    390.000     81.390    350.000     67.330    150.000     19.790    190.000     25.870    441.4144 
4    400.000     81.390    360.000     70.820    160.000     21.150    200.000     27.920    393.3721 
4    280.000     50.820    240.000     34.340      0.000      0.000     40.000      6.260    268.5093 
4    290.000     51.120    250.000     36.800     10.000      1.130     50.000      7.720    208.5460 
4    300.000     54.080    260.000     42.770     20.000      2.590     60.000      8.510    186.8806 
4    310.000     54.180    270.000     47.830     30.000      4.780     70.000      9.310    154.6425 
4    320.000     56.310    280.000     50.820     40.000      6.260     80.000     10.270    151.1021 
4    330.000     55.900    290.000     51.120     50.000      7.720     90.000     11.390    141.9957 
4    340.000     61.890    300.000     54.080     60.000      8.510    100.000     12.400    187.3509 
4    350.000     67.330    310.000     54.180     70.000      9.310    110.000     13.270    255.6540 
4    360.000     70.820    320.000     56.310     80.000     10.270    120.000     14.580    363.8172 
4    370.000     72.650    330.000     55.900     90.000     11.390    130.000     16.230    427.1411 
4    380.000     80.500    340.000     61.890    100.000     12.400    140.000     17.800    441.2805 
4    390.000     81.390    350.000     67.330    110.000     13.270    150.000     19.790    398.7013 
4    400.000     81.390    360.000     70.820    120.000     14.580    160.000     21.150    361.1650 
4    300.000     54.080    250.000     36.800      0.000      0.000     50.000      7.720    209.6617 
4    310.000     54.180    260.000     42.770     10.000      1.130     60.000      8.510    173.3448 
4    320.000     56.310    270.000     47.830     20.000      2.590     70.000      9.310    161.6478 
4    330.000     55.900    280.000     50.820     30.000      4.780     80.000     10.270    167.4146 
4    340.000     61.890    290.000     51.120     40.000      6.260     90.000     11.390    195.2475 
4    350.000     67.330    300.000     54.080     50.000      7.720    100.000     12.400    255.1099 
4    360.000     70.820    310.000     54.180     60.000      8.510    110.000     13.270    334.5117 
4    370.000     72.650    320.000     56.310     70.000      9.310    120.000     14.580    408.0382 
4    380.000     80.500    330.000     55.900     80.000     10.270    130.000     16.230    427.7115 
4    390.000     81.390    340.000     61.890     90.000     11.390    140.000     17.800    436.3955 
4    400.000     81.390    350.000     67.330    100.000     12.400    150.000     19.790    413.3820 
0
0
0
0
0
0
0
