Project5 Dipole-Dipole_1
  5.0000
11
3
Type of measurement (0=app. resistivity,1=resistance)
0
1360
2
0
4      15.00       2.00      10.00       1.13       0.00       0.00       5.00       0.50     547.7841
4      20.00       2.59      15.00       2.00       5.00       0.50      10.00       1.13     580.6691
4      25.00       3.85      20.00       2.59      10.00       1.13      15.00       2.00     720.4376
4      30.00       4.78      25.00       3.85      15.00       2.00      20.00       2.59     833.8035
4      35.00       5.50      30.00       4.78      20.00       2.59      25.00       3.85     967.6702
4      40.00       6.26      35.00       5.50      25.00       3.85      30.00       4.78     809.3792
4      45.00       6.94      40.00       6.26      30.00       4.78      35.00       5.50     743.5717
4      50.00       7.72      45.00       6.94      35.00       5.50      40.00       6.26     537.4527
4      55.00       8.14      50.00       7.72      40.00       6.26      45.00       6.94     667.1782
4      60.00       8.51      55.00       8.14      45.00       6.94      50.00       7.72     823.8029
4      65.00       8.95      60.00       8.51      50.00       7.72      55.00       8.14     638.3854
4      70.00       9.31      65.00       8.95      55.00       8.14      60.00       8.51     576.5825
4      75.00       9.72      70.00       9.31      60.00       8.51      65.00       8.95     542.2348
4      80.00      10.27      75.00       9.72      65.00       8.95      70.00       9.31     714.4858
4      85.00      10.83      80.00      10.27      70.00       9.31      75.00       9.72     672.8349
4      90.00      11.39      85.00      10.83      75.00       9.72      80.00      10.27     680.0420
4      95.00      11.93      90.00      11.39      80.00      10.27      85.00      10.83     567.4291
4     100.00      12.40      95.00      11.93      85.00      10.83      90.00      11.39     633.7956
4     105.00      12.86     100.00      12.40      90.00      11.39      95.00      11.93     745.1710
4     110.00      13.27     105.00      12.86      95.00      11.93     100.00      12.40     959.2067
4     115.00      13.87     110.00      13.27     100.00      12.40     105.00      12.86    1000.9585
4     120.00      14.58     115.00      13.87     105.00      12.86     110.00      13.27    1070.2683
4     125.00      15.55     120.00      14.58     110.00      13.27     115.00      13.87     937.2254
4     130.00      16.23     125.00      15.55     115.00      13.87     120.00      14.58     797.0120
4     135.00      16.98     130.00      16.23     120.00      14.58     125.00      15.55     841.0228
4     140.00      17.80     135.00      16.98     125.00      15.55     130.00      16.23     647.4954
4     145.00      18.89     140.00      17.80     130.00      16.23     135.00      16.98     672.3269
4     150.00      19.79     145.00      18.89     135.00      16.98     140.00      17.80     604.3318
4     155.00      20.49     150.00      19.79     140.00      17.80     145.00      18.89     677.7527
4     160.00      21.15     155.00      20.49     145.00      18.89     150.00      19.79     854.6040
4     165.00      21.92     160.00      21.15     150.00      19.79     155.00      20.49     797.9064
4     170.00      22.92     165.00      21.92     155.00      20.49     160.00      21.15    1043.1909
4     175.00      23.94     170.00      22.92     160.00      21.15     165.00      21.92     818.1517
4     180.00      24.68     175.00      23.94     165.00      21.92     170.00      22.92    1072.0120
4     185.00      25.27     180.00      24.68     170.00      22.92     175.00      23.94    1183.7898
4     190.00      25.87     185.00      25.27     175.00      23.94     180.00      24.68     916.7020
4     195.00      26.78     190.00      25.87     180.00      24.68     185.00      25.27    1277.1705
4     200.00      27.92     195.00      26.78     185.00      25.27     190.00      25.87     988.6497
4     205.00      28.51     200.00      27.92     190.00      25.87     195.00      26.78     866.6318
4     210.00      28.92     205.00      28.51     195.00      26.78     200.00      27.92     577.4985
4     215.00      29.45     210.00      28.92     200.00      27.92     205.00      28.51     476.9908
4     220.00      29.96     215.00      29.45     205.00      28.51     210.00      28.92     602.8060
4     225.00      30.41     220.00      29.96     210.00      28.92     215.00      29.45     590.9260
4     230.00      31.10     225.00      30.41     215.00      29.45     220.00      29.96    1034.8689
4     235.00      32.36     230.00      31.10     220.00      29.96     225.00      30.41    1694.3207
4     240.00      34.34     235.00      32.36     225.00      30.41     230.00      31.10    1007.6784
4     245.00      35.08     240.00      34.34     230.00      31.10     235.00      32.36     451.4808
4     250.00      36.80     245.00      35.08     235.00      32.36     240.00      34.34     491.3429
4     255.00      38.95     250.00      36.80     240.00      34.34     245.00      35.08     540.9332
4     260.00      42.77     255.00      38.95     245.00      35.08     250.00      36.80     535.0560
4     265.00      45.13     260.00      42.77     250.00      36.80     255.00      38.95     632.4308
4     270.00      47.83     265.00      45.13     255.00      38.95     260.00      42.77     693.6637
4     275.00      49.09     270.00      47.83     260.00      42.77     265.00      45.13     864.1673
4     280.00      50.82     275.00      49.09     265.00      45.13     270.00      47.83    1087.4120
4     285.00      51.50     280.00      50.82     270.00      47.83     275.00      49.09     897.2436
4     290.00      51.12     285.00      51.50     275.00      49.09     280.00      50.82     934.0652
4     295.00      54.37     290.00      51.12     280.00      50.82     285.00      51.50    1329.9587
4     300.00      54.08     295.00      54.37     285.00      51.50     290.00      51.12    1149.8041
4     305.00      53.63     300.00      54.08     290.00      51.12     295.00      54.37    1340.0526
4     310.00      54.18     305.00      53.63     295.00      54.37     300.00      54.08    1300.6759
4     315.00      55.11     310.00      54.18     300.00      54.08     305.00      53.63    1534.0051
4     320.00      56.31     315.00      55.11     305.00      53.63     310.00      54.18    1541.3564
4     325.00      55.60     320.00      56.31     310.00      54.18     315.00      55.11    1074.1420
4     330.00      55.90     325.00      55.60     315.00      55.11     320.00      56.31     847.5514
4     335.00      59.95     330.00      55.90     320.00      56.31     325.00      55.60     860.2211
4     340.00      61.89     335.00      59.95     325.00      55.60     330.00      55.90     905.5619
4     345.00      63.80     340.00      61.89     330.00      55.90     335.00      59.95     906.3168
4     350.00      67.33     345.00      63.80     335.00      59.95     340.00      61.89     942.2591
4     355.00      71.16     350.00      67.33     340.00      61.89     345.00      63.80    1182.2253
4     360.00      70.82     355.00      71.16     345.00      63.80     350.00      67.33    1436.2891
4     365.00      72.59     360.00      70.82     350.00      67.33     355.00      71.16    1559.6123
4     370.00      72.65     365.00      72.59     355.00      71.16     360.00      70.82    1848.3970
4     375.00      76.54     370.00      72.65     360.00      70.82     365.00      72.59    1636.9803
4     380.00      80.50     375.00      76.54     365.00      72.59     370.00      72.65     921.6943
4     385.00      81.39     380.00      80.50     370.00      72.65     375.00      76.54     799.0629
4     390.00      81.39     385.00      81.39     375.00      76.54     380.00      80.50    1174.9965
4     395.00      81.39     390.00      81.39     380.00      80.50     385.00      81.39    1307.3015
4     400.00      81.39     395.00      81.39     385.00      81.39     390.00      81.39    1248.1799
4      20.00       2.59      15.00       2.00       0.00       0.00       5.00       0.50     765.1563
4      25.00       3.85      20.00       2.59       5.00       0.50      10.00       1.13     751.7731
4      30.00       4.78      25.00       3.85      10.00       1.13      15.00       2.00     812.3066
4      35.00       5.50      30.00       4.78      15.00       2.00      20.00       2.59    1046.1805
4      40.00       6.26      35.00       5.50      20.00       2.59      25.00       3.85     830.6584
4      45.00       6.94      40.00       6.26      25.00       3.85      30.00       4.78     765.3221
4      50.00       7.72      45.00       6.94      30.00       4.78      35.00       5.50     893.7479
4      55.00       8.14      50.00       7.72      35.00       5.50      40.00       6.26     703.4730
4      60.00       8.51      55.00       8.14      40.00       6.26      45.00       6.94     819.6239
4      65.00       8.95      60.00       8.51      45.00       6.94      50.00       7.72     795.6171
4      70.00       9.31      65.00       8.95      50.00       7.72      55.00       8.14     722.1868
4      75.00       9.72      70.00       9.31      55.00       8.14      60.00       8.51     721.3046
4      80.00      10.27      75.00       9.72      60.00       8.51      65.00       8.95     633.8239
4      85.00      10.83      80.00      10.27      65.00       8.95      70.00       9.31     606.7709
4      90.00      11.39      85.00      10.83      70.00       9.31      75.00       9.72     521.8801
4      95.00      11.93      90.00      11.39      75.00       9.72      80.00      10.27     594.9598
4     100.00      12.40      95.00      11.93      80.00      10.27      85.00      10.83     534.1851
4     105.00      12.86     100.00      12.40      85.00      10.83      90.00      11.39     607.3817
4     110.00      13.27     105.00      12.86      90.00      11.39      95.00      11.93     721.4215
4     115.00      13.87     110.00      13.27      95.00      11.93     100.00      12.40     856.3014
4     120.00      14.58     115.00      13.87     100.00      12.40     105.00      12.86     948.3362
4     125.00      15.55     120.00      14.58     105.00      12.86     110.00      13.27     913.6342
4     130.00      16.23     125.00      15.55     110.00      13.27     115.00      13.87     710.7225
4     135.00      16.98     130.00      16.23     115.00      13.87     120.00      14.58     707.9479
4     140.00      17.80     135.00      16.98     120.00      14.58     125.00      15.55     675.9866
4     145.00      18.89     140.00      17.80     125.00      15.55     130.00      16.23     711.8347
4     150.00      19.79     145.00      18.89     130.00      16.23     135.00      16.98     735.9658
4     155.00      20.49     150.00      19.79     135.00      16.98     140.00      17.80     680.2541
4     160.00      21.15     155.00      20.49     140.00      17.80     145.00      18.89     929.9995
4     165.00      21.92     160.00      21.15     145.00      18.89     150.00      19.79     893.5896
4     170.00      22.92     165.00      21.92     150.00      19.79     155.00      20.49     954.5717
4     175.00      23.94     170.00      22.92     155.00      20.49     160.00      21.15    1068.6304
4     180.00      24.68     175.00      23.94     160.00      21.15     165.00      21.92     796.3786
4     185.00      25.27     180.00      24.68     165.00      21.92     170.00      22.92    1171.6017
4     190.00      25.87     185.00      25.27     170.00      22.92     175.00      23.94    1014.8978
4     195.00      26.78     190.00      25.87     175.00      23.94     180.00      24.68     945.6332
4     200.00      27.92     195.00      26.78     180.00      24.68     185.00      25.27     963.1407
4     205.00      28.51     200.00      27.92     185.00      25.27     190.00      25.87     759.8105
4     210.00      28.92     205.00      28.51     190.00      25.87     195.00      26.78     807.2097
4     215.00      29.45     210.00      28.92     195.00      26.78     200.00      27.92     564.1710
4     220.00      29.96     215.00      29.45     200.00      27.92     205.00      28.51     535.1917
4     225.00      30.41     220.00      29.96     205.00      28.51     210.00      28.92     780.5488
4     230.00      31.10     225.00      30.41     210.00      28.92     215.00      29.45     747.0494
4     235.00      32.36     230.00      31.10     215.00      29.45     220.00      29.96     846.6731
4     240.00      34.34     235.00      32.36     220.00      29.96     225.00      30.41     933.1925
4     245.00      35.08     240.00      34.34     225.00      30.41     230.00      31.10     411.1767
4     250.00      36.80     245.00      35.08     230.00      31.10     235.00      32.36     285.5086
4     255.00      38.95     250.00      36.80     235.00      32.36     240.00      34.34     286.9984
4     260.00      42.77     255.00      38.95     240.00      34.34     245.00      35.08     288.3066
4     265.00      45.13     260.00      42.77     245.00      35.08     250.00      36.80     349.5428
4     270.00      47.83     265.00      45.13     250.00      36.80     255.00      38.95     506.6987
4     275.00      49.09     270.00      47.83     255.00      38.95     260.00      42.77     560.5594
4     280.00      50.82     275.00      49.09     260.00      42.77     265.00      45.13     838.2963
4     285.00      51.50     280.00      50.82     265.00      45.13     270.00      47.83    1003.1507
4     290.00      51.12     285.00      51.50     270.00      47.83     275.00      49.09     894.8412
4     295.00      54.37     290.00      51.12     275.00      49.09     280.00      50.82    1455.9095
4     300.00      54.08     295.00      54.37     280.00      50.82     285.00      51.50    1085.0483
4     305.00      53.63     300.00      54.08     285.00      51.50     290.00      51.12    1142.7996
4     310.00      54.18     305.00      53.63     290.00      51.12     295.00      54.37    1409.6000
4     315.00      55.11     310.00      54.18     295.00      54.37     300.00      54.08    1359.8899
4     320.00      56.31     315.00      55.11     300.00      54.08     305.00      53.63    1313.5087
4     325.00      55.60     320.00      56.31     305.00      53.63     310.00      54.18     855.9772
4     330.00      55.90     325.00      55.60     310.00      54.18     315.00      55.11     683.6244
4     335.00      59.95     330.00      55.90     315.00      55.11     320.00      56.31     650.4115
4     340.00      61.89     335.00      59.95     320.00      56.31     325.00      55.60     910.9839
4     345.00      63.80     340.00      61.89     325.00      55.60     330.00      55.90     836.6978
4     350.00      67.33     345.00      63.80     330.00      55.90     335.00      59.95    1055.0398
4     355.00      71.16     350.00      67.33     335.00      59.95     340.00      61.89    1170.6215
4     360.00      70.82     355.00      71.16     340.00      61.89     345.00      63.80    1583.8264
4     365.00      72.59     360.00      70.82     345.00      63.80     350.00      67.33    1681.5426
4     370.00      72.65     365.00      72.59     350.00      67.33     355.00      71.16    2005.1857
4     375.00      76.54     370.00      72.65     355.00      71.16     360.00      70.82    2356.0173
4     380.00      80.50     375.00      76.54     360.00      70.82     365.00      72.59    1084.6752
4     385.00      81.39     380.00      80.50     365.00      72.59     370.00      72.65     795.3306
4     390.00      81.39     385.00      81.39     370.00      72.65     375.00      76.54     905.7551
4     395.00      81.39     390.00      81.39     375.00      76.54     380.00      80.50     975.1780
4     400.00      81.39     395.00      81.39     380.00      80.50     385.00      81.39    1121.4430
4      30.00       4.78      20.00       2.59       0.00       0.00      10.00       1.13     794.6935
4      40.00       6.26      30.00       4.78      10.00       1.13      20.00       2.59     935.7014
4      50.00       7.72      40.00       6.26      20.00       2.59      30.00       4.78     797.2476
4      60.00       8.51      50.00       7.72      30.00       4.78      40.00       6.26     807.4452
4      70.00       9.31      60.00       8.51      40.00       6.26      50.00       7.72     776.4509
4      80.00      10.27      70.00       9.31      50.00       7.72      60.00       8.51     758.1989
4      90.00      11.39      80.00      10.27      60.00       8.51      70.00       9.31     584.4305
4     100.00      12.40      90.00      11.39      70.00       9.31      80.00      10.27     598.3528
4     110.00      13.27     100.00      12.40      80.00      10.27      90.00      11.39     643.6049
4     120.00      14.58     110.00      13.27      90.00      11.39     100.00      12.40     825.2411
4     130.00      16.23     120.00      14.58     100.00      12.40     110.00      13.27     870.5347
4     140.00      17.80     130.00      16.23     110.00      13.27     120.00      14.58     696.8605
4     150.00      19.79     140.00      17.80     120.00      14.58     130.00      16.23     734.3485
4     160.00      21.15     150.00      19.79     130.00      16.23     140.00      17.80     766.4814
4     170.00      22.92     160.00      21.15     140.00      17.80     150.00      19.79     946.4042
4     180.00      24.68     170.00      22.92     150.00      19.79     160.00      21.15    1016.5792
4     190.00      25.87     180.00      24.68     160.00      21.15     170.00      22.92    1076.0834
4     200.00      27.92     190.00      25.87     170.00      22.92     180.00      24.68     941.7992
4     210.00      28.92     200.00      27.92     180.00      24.68     190.00      25.87     799.0402
4     220.00      29.96     210.00      28.92     190.00      25.87     200.00      27.92     637.7898
4     230.00      31.10     220.00      29.96     200.00      27.92     210.00      28.92     809.9410
4     240.00      34.34     230.00      31.10     210.00      28.92     220.00      29.96     711.3747
4     250.00      36.80     240.00      34.34     220.00      29.96     230.00      31.10     377.8959
4     260.00      42.77     250.00      36.80     230.00      31.10     240.00      34.34     236.6355
4     270.00      47.83     260.00      42.77     240.00      34.34     250.00      36.80     293.4669
4     280.00      50.82     270.00      47.83     250.00      36.80     260.00      42.77     480.4224
4     290.00      51.12     280.00      50.82     260.00      42.77     270.00      47.83     858.8008
4     300.00      54.08     290.00      51.12     270.00      47.83     280.00      50.82    1256.8318
4     310.00      54.18     300.00      54.08     280.00      50.82     290.00      51.12    1084.4564
4     320.00      56.31     310.00      54.18     290.00      51.12     300.00      54.08    1243.5599
4     330.00      55.90     320.00      56.31     300.00      54.08     310.00      54.18     699.3261
4     340.00      61.89     330.00      55.90     310.00      54.18     320.00      56.31     612.5804
4     350.00      67.33     340.00      61.89     320.00      56.31     330.00      55.90     853.1555
4     360.00      70.82     350.00      67.33     330.00      55.90     340.00      61.89    1263.1257
4     370.00      72.65     360.00      70.82     340.00      61.89     350.00      67.33    1832.9364
4     380.00      80.50     370.00      72.65     350.00      67.33     360.00      70.82    2040.4456
4     390.00      81.39     380.00      80.50     360.00      70.82     370.00      72.65     939.0453
4     400.00      81.39     390.00      81.39     370.00      72.65     380.00      80.50     918.5898
4      25.00       3.85      20.00       2.59       0.00       0.00       5.00       0.50     863.7526
4      30.00       4.78      25.00       3.85       5.00       0.50      10.00       1.13     794.6614
4      35.00       5.50      30.00       4.78      10.00       1.13      15.00       2.00     897.9014
4      40.00       6.26      35.00       5.50      15.00       2.00      20.00       2.59     818.9953
4      45.00       6.94      40.00       6.26      20.00       2.59      25.00       3.85     773.0193
4      50.00       7.72      45.00       6.94      25.00       3.85      30.00       4.78     862.8092
4      55.00       8.14      50.00       7.72      30.00       4.78      35.00       5.50     997.3677
4      60.00       8.51      55.00       8.14      35.00       5.50      40.00       6.26     744.2417
4      65.00       8.95      60.00       8.51      40.00       6.26      45.00       6.94     714.9995
4      70.00       9.31      65.00       8.95      45.00       6.94      50.00       7.72     796.5219
4      75.00       9.72      70.00       9.31      50.00       7.72      55.00       8.14     779.7543
4      80.00      10.27      75.00       9.72      55.00       8.14      60.00       8.51     784.8229
4      85.00      10.83      80.00      10.27      60.00       8.51      65.00       8.95     591.6461
4      90.00      11.39      85.00      10.83      65.00       8.95      70.00       9.31     524.4728
4      95.00      11.93      90.00      11.39      70.00       9.31      75.00       9.72     512.1500
4     100.00      12.40      95.00      11.93      75.00       9.72      80.00      10.27     670.0470
4     105.00      12.86     100.00      12.40      80.00      10.27      85.00      10.83     601.8654
4     110.00      13.27     105.00      12.86      85.00      10.83      90.00      11.39     716.8203
4     115.00      13.87     110.00      13.27      90.00      11.39      95.00      11.93     711.3539
4     120.00      14.58     115.00      13.87      95.00      11.93     100.00      12.40     876.0557
4     125.00      15.55     120.00      14.58     100.00      12.40     105.00      12.86     878.0660
4     130.00      16.23     125.00      15.55     105.00      12.86     110.00      13.27     783.7448
4     135.00      16.98     130.00      16.23     110.00      13.27     115.00      13.87     694.9596
4     140.00      17.80     135.00      16.98     115.00      13.87     120.00      14.58     671.5437
4     145.00      18.89     140.00      17.80     120.00      14.58     125.00      15.55     742.4963
4     150.00      19.79     145.00      18.89     125.00      15.55     130.00      16.23     746.2303
4     155.00      20.49     150.00      19.79     130.00      16.23     135.00      16.98     750.2293
4     160.00      21.15     155.00      20.49     135.00      16.98     140.00      17.80     891.7234
4     165.00      21.92     160.00      21.15     140.00      17.80     145.00      18.89     915.9376
4     170.00      22.92     165.00      21.92     145.00      18.89     150.00      19.79    1039.7981
4     175.00      23.94     170.00      22.92     150.00      19.79     155.00      20.49     938.3394
4     180.00      24.68     175.00      23.94     155.00      20.49     160.00      21.15    1008.5927
4     185.00      25.27     180.00      24.68     160.00      21.15     165.00      21.92     958.4717
4     190.00      25.87     185.00      25.27     165.00      21.92     170.00      22.92    1024.2378
4     195.00      26.78     190.00      25.87     170.00      22.92     175.00      23.94    1072.2947
4     200.00      27.92     195.00      26.78     175.00      23.94     180.00      24.68     786.2621
4     205.00      28.51     200.00      27.92     180.00      24.68     185.00      25.27     835.7733
4     210.00      28.92     205.00      28.51     185.00      25.27     190.00      25.87     779.3406
4     215.00      29.45     210.00      28.92     190.00      25.87     195.00      26.78     792.6907
4     220.00      29.96     215.00      29.45     195.00      26.78     200.00      27.92     616.9375
4     225.00      30.41     220.00      29.96     200.00      27.92     205.00      28.51     803.1796
4     230.00      31.10     225.00      30.41     205.00      28.51     210.00      28.92     887.6699
4     235.00      32.36     230.00      31.10     210.00      28.92     215.00      29.45     737.1025
4     240.00      34.34     235.00      32.36     215.00      29.45     220.00      29.96     458.9084
4     245.00      35.08     240.00      34.34     220.00      29.96     225.00      30.41     388.5836
4     250.00      36.80     245.00      35.08     225.00      30.41     230.00      31.10     296.7307
4     255.00      38.95     250.00      36.80     230.00      31.10     235.00      32.36     200.8298
4     260.00      42.77     255.00      38.95     235.00      32.36     240.00      34.34     172.0606
4     265.00      45.13     260.00      42.77     240.00      34.34     245.00      35.08     200.7157
4     270.00      47.83     265.00      45.13     245.00      35.08     250.00      36.80     291.2756
4     275.00      49.09     270.00      47.83     250.00      36.80     255.00      38.95     355.7750
4     280.00      50.82     275.00      49.09     255.00      38.95     260.00      42.77     492.1148
4     285.00      51.50     280.00      50.82     260.00      42.77     265.00      45.13     656.5602
4     290.00      51.12     285.00      51.50     265.00      45.13     270.00      47.83     869.2916
4     295.00      54.37     290.00      51.12     270.00      47.83     275.00      49.09    1134.9130
4     300.00      54.08     295.00      54.37     275.00      49.09     280.00      50.82    1107.7695
4     305.00      53.63     300.00      54.08     280.00      50.82     285.00      51.50    1054.8683
4     310.00      54.18     305.00      53.63     285.00      51.50     290.00      51.12    1042.7764
4     315.00      55.11     310.00      54.18     290.00      51.12     295.00      54.37    1310.5060
4     320.00      56.31     315.00      55.11     295.00      54.37     300.00      54.08    1032.3053
4     325.00      55.60     320.00      56.31     300.00      54.08     305.00      53.63     703.2166
4     330.00      55.90     325.00      55.60     305.00      53.63     310.00      54.18     461.4230
4     335.00      59.95     330.00      55.90     310.00      54.18     315.00      55.11     492.7245
4     340.00      61.89     335.00      59.95     315.00      55.11     320.00      56.31     677.8272
4     345.00      63.80     340.00      61.89     320.00      56.31     325.00      55.60     826.7161
4     350.00      67.33     345.00      63.80     325.00      55.60     330.00      55.90     931.4669
4     355.00      71.16     350.00      67.33     330.00      55.90     335.00      59.95    1194.1665
4     360.00      70.82     355.00      71.16     335.00      59.95     340.00      61.89    1476.3821
4     365.00      72.59     360.00      70.82     340.00      61.89     345.00      63.80    1819.5947
4     370.00      72.65     365.00      72.59     345.00      63.80     350.00      67.33    2048.7109
4     375.00      76.54     370.00      72.65     350.00      67.33     355.00      71.16    2239.8645
4     380.00      80.50     375.00      76.54     355.00      71.16     360.00      70.82    1394.9802
4     385.00      81.39     380.00      80.50     360.00      70.82     365.00      72.59     996.6232
4     390.00      81.39     385.00      81.39     365.00      72.59     370.00      72.65    1062.1160
4     395.00      81.39     390.00      81.39     370.00      72.65     375.00      76.54     857.6896
4     400.00      81.39     395.00      81.39     375.00      76.54     380.00      80.50     866.5848
4      30.00       4.78      25.00       3.85       0.00       0.00       5.00       0.50     872.8645
4      35.00       5.50      30.00       4.78       5.00       0.50      10.00       1.13     852.0433
4      40.00       6.26      35.00       5.50      10.00       1.13      15.00       2.00     698.8284
4      45.00       6.94      40.00       6.26      15.00       2.00      20.00       2.59     802.1786
4      50.00       7.72      45.00       6.94      20.00       2.59      25.00       3.85     881.2224
4      55.00       8.14      50.00       7.72      25.00       3.85      30.00       4.78     931.0908
4      60.00       8.51      55.00       8.14      30.00       4.78      35.00       5.50    1010.7170
4      65.00       8.95      60.00       8.51      35.00       5.50      40.00       6.26     655.6460
4      70.00       9.31      65.00       8.95      40.00       6.26      45.00       6.94     710.8903
4      75.00       9.72      70.00       9.31      45.00       6.94      50.00       7.72     805.3567
4      80.00      10.27      75.00       9.72      50.00       7.72      55.00       8.14     810.2934
4      85.00      10.83      80.00      10.27      55.00       8.14      60.00       8.51     720.1096
4      90.00      11.39      85.00      10.83      60.00       8.51      65.00       8.95     535.0748
4      95.00      11.93      90.00      11.39      65.00       8.95      70.00       9.31     553.9904
4     100.00      12.40      95.00      11.93      70.00       9.31      75.00       9.72     604.3545
4     105.00      12.86     100.00      12.40      75.00       9.72      80.00      10.27     755.3093
4     110.00      13.27     105.00      12.86      80.00      10.27      85.00      10.83     727.8605
4     115.00      13.87     110.00      13.27      85.00      10.83      90.00      11.39     722.2396
4     120.00      14.58     115.00      13.87      90.00      11.39      95.00      11.93     767.5031
4     125.00      15.55     120.00      14.58      95.00      11.93     100.00      12.40     842.7580
4     130.00      16.23     125.00      15.55     100.00      12.40     105.00      12.86     773.7724
4     135.00      16.98     130.00      16.23     105.00      12.86     110.00      13.27     783.2386
4     140.00      17.80     135.00      16.98     110.00      13.27     115.00      13.87     668.5164
4     145.00      18.89     140.00      17.80     115.00      13.87     120.00      14.58     762.6662
4     150.00      19.79     145.00      18.89     120.00      14.58     125.00      15.55     780.4772
4     155.00      20.49     150.00      19.79     125.00      15.55     130.00      16.23     742.9552
4     160.00      21.15     155.00      20.49     130.00      16.23     135.00      16.98     957.0107
4     165.00      21.92     160.00      21.15     135.00      16.98     140.00      17.80     831.7065
4     170.00      22.92     165.00      21.92     140.00      17.80     145.00      18.89    1065.5107
4     175.00      23.94     170.00      22.92     145.00      18.89     150.00      19.79    1031.4326
4     180.00      24.68     175.00      23.94     150.00      19.79     155.00      20.49     891.7556
4     185.00      25.27     180.00      24.68     155.00      20.49     160.00      21.15    1253.7593
4     190.00      25.87     185.00      25.27     160.00      21.15     165.00      21.92     899.4876
4     195.00      26.78     190.00      25.87     165.00      21.92     170.00      22.92    1133.7593
4     200.00      27.92     195.00      26.78     170.00      22.92     175.00      23.94     943.1620
4     205.00      28.51     200.00      27.92     175.00      23.94     180.00      24.68     761.7502
4     210.00      28.92     205.00      28.51     180.00      24.68     185.00      25.27     931.7920
4     215.00      29.45     210.00      28.92     185.00      25.27     190.00      25.87     784.2282
4     220.00      29.96     215.00      29.45     190.00      25.87     195.00      26.78     799.8074
4     225.00      30.41     220.00      29.96     195.00      26.78     200.00      27.92     859.3060
4     230.00      31.10     225.00      30.41     200.00      27.92     205.00      28.51     879.9520
4     235.00      32.36     230.00      31.10     205.00      28.51     210.00      28.92     848.6654
4     240.00      34.34     235.00      32.36     210.00      28.92     215.00      29.45     461.9517
4     245.00      35.08     240.00      34.34     215.00      29.45     220.00      29.96     258.4802
4     250.00      36.80     245.00      35.08     220.00      29.96     225.00      30.41     329.3130
4     255.00      38.95     250.00      36.80     225.00      30.41     230.00      31.10     237.1255
4     260.00      42.77     255.00      38.95     230.00      31.10     235.00      32.36     142.9417
4     265.00      45.13     260.00      42.77     235.00      32.36     240.00      34.34     132.4553
4     270.00      47.83     265.00      45.13     240.00      34.34     245.00      35.08     189.3268
4     275.00      49.09     270.00      47.83     245.00      35.08     250.00      36.80     226.9091
4     280.00      50.82     275.00      49.09     250.00      36.80     255.00      38.95     308.1130
4     285.00      51.50     280.00      50.82     255.00      38.95     260.00      42.77     358.4507
4     290.00      51.12     285.00      51.50     260.00      42.77     265.00      45.13     519.9839
4     295.00      54.37     290.00      51.12     265.00      45.13     270.00      47.83     966.0378
4     300.00      54.08     295.00      54.37     270.00      47.83     275.00      49.09     794.8651
4     305.00      53.63     300.00      54.08     275.00      49.09     280.00      50.82    1001.6107
4     310.00      54.18     305.00      53.63     280.00      50.82     285.00      51.50     910.1282
4     315.00      55.11     310.00      54.18     285.00      51.50     290.00      51.12     911.5231
4     320.00      56.31     315.00      55.11     290.00      51.12     295.00      54.37     932.6214
4     325.00      55.60     320.00      56.31     295.00      54.37     300.00      54.08     543.5175
4     330.00      55.90     325.00      55.60     300.00      54.08     305.00      53.63     366.3788
4     335.00      59.95     330.00      55.90     305.00      53.63     310.00      54.18     349.8251
4     340.00      61.89     335.00      59.95     310.00      54.18     315.00      55.11     512.7098
4     345.00      63.80     340.00      61.89     315.00      55.11     320.00      56.31     645.9121
4     350.00      67.33     345.00      63.80     320.00      56.31     325.00      55.60     874.4328
4     355.00      71.16     350.00      67.33     325.00      55.60     330.00      55.90     971.2366
4     360.00      70.82     355.00      71.16     330.00      55.90     335.00      59.95    1424.9718
4     365.00      72.59     360.00      70.82     335.00      59.95     340.00      61.89    1670.6323
4     370.00      72.65     365.00      72.59     340.00      61.89     345.00      63.80    2175.2952
4     375.00      76.54     370.00      72.65     345.00      63.80     350.00      67.33    2189.7908
4     380.00      80.50     375.00      76.54     350.00      67.33     355.00      71.16    1347.2683
4     385.00      81.39     380.00      80.50     355.00      71.16     360.00      70.82    1280.9460
4     390.00      81.39     385.00      81.39     360.00      70.82     365.00      72.59    1296.2614
4     395.00      81.39     390.00      81.39     365.00      72.59     370.00      72.65    1033.6211
4     400.00      81.39     395.00      81.39     370.00      72.65     375.00      76.54     877.0227
4      40.00       6.26      30.00       4.78       0.00       0.00      10.00       1.13     801.0609
4      50.00       7.72      40.00       6.26      10.00       1.13      20.00       2.59     808.7214
4      60.00       8.51      50.00       7.72      20.00       2.59      30.00       4.78     950.7188
4      70.00       9.31      60.00       8.51      30.00       4.78      40.00       6.26     749.4666
4      80.00      10.27      70.00       9.31      40.00       6.26      50.00       7.72     788.3488
4      90.00      11.39      80.00      10.27      50.00       7.72      60.00       8.51     702.0035
4     100.00      12.40      90.00      11.39      60.00       8.51      70.00       9.31     614.0333
4     110.00      13.27     100.00      12.40      70.00       9.31      80.00      10.27     789.3968
4     120.00      14.58     110.00      13.27      80.00      10.27      90.00      11.39     744.4157
4     130.00      16.23     120.00      14.58      90.00      11.39     100.00      12.40     773.7592
4     140.00      17.80     130.00      16.23     100.00      12.40     110.00      13.27     766.4380
4     150.00      19.79     140.00      17.80     110.00      13.27     120.00      14.58     775.3124
4     160.00      21.15     150.00      19.79     120.00      14.58     130.00      16.23     832.2457
4     170.00      22.92     160.00      21.15     130.00      16.23     140.00      17.80     905.5176
4     180.00      24.68     170.00      22.92     140.00      17.80     150.00      19.79    1039.8019
4     190.00      25.87     180.00      24.68     150.00      19.79     160.00      21.15    1184.3552
4     200.00      27.92     190.00      25.87     160.00      21.15     170.00      22.92    1049.3472
4     210.00      28.92     200.00      27.92     170.00      22.92     180.00      24.68     871.3245
4     220.00      29.96     210.00      28.92     180.00      24.68     190.00      25.87     837.9307
4     230.00      31.10     220.00      29.96     190.00      25.87     200.00      27.92     937.5769
4     240.00      34.34     230.00      31.10     200.00      27.92     210.00      28.92     718.6853
4     250.00      36.80     240.00      34.34     210.00      28.92     220.00      29.96     286.1973
4     260.00      42.77     250.00      36.80     220.00      29.96     230.00      31.10     229.7256
4     270.00      47.83     260.00      42.77     230.00      31.10     240.00      34.34     132.5938
4     280.00      50.82     270.00      47.83     240.00      34.34     250.00      36.80     203.6604
4     290.00      51.12     280.00      50.82     250.00      36.80     260.00      42.77     288.1464
4     300.00      54.08     290.00      51.12     260.00      42.77     270.00      47.83     711.9130
4     310.00      54.18     300.00      54.08     270.00      47.83     280.00      50.82     820.3629
4     320.00      56.31     310.00      54.18     280.00      50.82     290.00      51.12     756.6664
4     330.00      55.90     320.00      56.31     290.00      51.12     300.00      54.08     434.6836
4     340.00      61.89     330.00      55.90     300.00      54.08     310.00      54.18     340.0596
4     350.00      67.33     340.00      61.89     310.00      54.18     320.00      56.31     593.6894
4     360.00      70.82     350.00      67.33     320.00      56.31     330.00      55.90     985.0627
4     370.00      72.65     360.00      70.82     330.00      55.90     340.00      61.89    1715.7168
4     380.00      80.50     370.00      72.65     340.00      61.89     350.00      67.33    1881.3440
4     390.00      81.39     380.00      80.50     350.00      67.33     360.00      70.82    1400.9669
4     400.00      81.39     390.00      81.39     360.00      70.82     370.00      72.65    1135.4822
4      35.00       5.50      30.00       4.78       0.00       0.00       5.00       0.50     904.7368
4      40.00       6.26      35.00       5.50       5.00       0.50      10.00       1.13     669.7625
4      45.00       6.94      40.00       6.26      10.00       1.13      15.00       2.00     695.6438
4      50.00       7.72      45.00       6.94      15.00       2.00      20.00       2.59     930.1234
4      55.00       8.14      50.00       7.72      20.00       2.59      25.00       3.85     947.0621
4      60.00       8.51      55.00       8.14      25.00       3.85      30.00       4.78     961.6158
4      65.00       8.95      60.00       8.51      30.00       4.78      35.00       5.50     889.5892
4      70.00       9.31      65.00       8.95      35.00       5.50      40.00       6.26     663.8743
4      75.00       9.72      70.00       9.31      40.00       6.26      45.00       6.94     722.7028
4      80.00      10.27      75.00       9.72      45.00       6.94      50.00       7.72     835.2502
4      85.00      10.83      80.00      10.27      50.00       7.72      55.00       8.14     732.8066
4      90.00      11.39      85.00      10.83      55.00       8.14      60.00       8.51     646.9389
4      95.00      11.93      90.00      11.39      60.00       8.51      65.00       8.95     577.4029
4     100.00      12.40      95.00      11.93      65.00       8.95      70.00       9.31     682.2974
4     105.00      12.86     100.00      12.40      70.00       9.31      75.00       9.72     699.4769
4     110.00      13.27     105.00      12.86      75.00       9.72      80.00      10.27     902.9588
4     115.00      13.87     110.00      13.27      80.00      10.27      85.00      10.83     728.9868
4     120.00      14.58     115.00      13.87      85.00      10.83      90.00      11.39     773.8652
4     125.00      15.55     120.00      14.58      90.00      11.39      95.00      11.93     744.2200
4     130.00      16.23     125.00      15.55      95.00      11.93     100.00      12.40     747.4033
4     135.00      16.98     130.00      16.23     100.00      12.40     105.00      12.86     768.0859
4     140.00      17.80     135.00      16.98     105.00      12.86     110.00      13.27     751.2825
4     145.00      18.89     140.00      17.80     110.00      13.27     115.00      13.87     755.0991
4     150.00      19.79     145.00      18.89     115.00      13.87     120.00      14.58     805.2686
4     155.00      20.49     150.00      19.79     120.00      14.58     125.00      15.55     777.0946
4     160.00      21.15     155.00      20.49     125.00      15.55     130.00      16.23     943.8557
4     165.00      21.92     160.00      21.15     130.00      16.23     135.00      16.98     884.4005
4     170.00      22.92     165.00      21.92     135.00      16.98     140.00      17.80     970.0043
4     175.00      23.94     170.00      22.92     140.00      17.80     145.00      18.89    1085.3918
4     180.00      24.68     175.00      23.94     145.00      18.89     150.00      19.79     996.2452
4     185.00      25.27     180.00      24.68     150.00      19.79     155.00      20.49    1132.2561
4     190.00      25.87     185.00      25.27     155.00      20.49     160.00      21.15    1188.2477
4     195.00      26.78     190.00      25.87     160.00      21.15     165.00      21.92    1023.5978
4     200.00      27.92     195.00      26.78     165.00      21.92     170.00      22.92    1007.5432
4     205.00      28.51     200.00      27.92     170.00      22.92     175.00      23.94     941.2399
4     210.00      28.92     205.00      28.51     175.00      23.94     180.00      24.68     869.8467
4     215.00      29.45     210.00      28.92     180.00      24.68     185.00      25.27     954.2828
4     220.00      29.96     215.00      29.45     185.00      25.27     190.00      25.87     766.7302
4     225.00      30.41     220.00      29.96     190.00      25.87     195.00      26.78    1064.0198
4     230.00      31.10     225.00      30.41     195.00      26.78     200.00      27.92     878.5684
4     235.00      32.36     230.00      31.10     200.00      27.92     205.00      28.51     813.1161
4     240.00      34.34     235.00      32.36     205.00      28.51     210.00      28.92     533.3162
4     245.00      35.08     240.00      34.34     210.00      28.92     215.00      29.45     316.1989
4     250.00      36.80     245.00      35.08     215.00      29.45     220.00      29.96     268.4958
4     255.00      38.95     250.00      36.80     220.00      29.96     225.00      30.41     277.6166
4     260.00      42.77     255.00      38.95     225.00      30.41     230.00      31.10     178.5436
4     265.00      45.13     260.00      42.77     230.00      31.10     235.00      32.36     123.5412
4     270.00      47.83     265.00      45.13     235.00      32.36     240.00      34.34     136.1230
4     275.00      49.09     270.00      47.83     240.00      34.34     245.00      35.08     163.4334
4     280.00      50.82     275.00      49.09     245.00      35.08     250.00      36.80     228.9087
4     285.00      51.50     280.00      50.82     250.00      36.80     255.00      38.95     235.4744
4     290.00      51.12     285.00      51.50     255.00      38.95     260.00      42.77     277.7205
4     295.00      54.37     290.00      51.12     260.00      42.77     265.00      45.13     540.4545
4     300.00      54.08     295.00      54.37     265.00      45.13     270.00      47.83     648.4728
4     305.00      53.63     300.00      54.08     270.00      47.83     275.00      49.09     683.9203
4     310.00      54.18     305.00      53.63     275.00      49.09     280.00      50.82     813.4559
4     315.00      55.11     310.00      54.18     280.00      50.82     285.00      51.50     764.2232
4     320.00      56.31     315.00      55.11     285.00      51.50     290.00      51.12     626.2167
4     325.00      55.60     320.00      56.31     290.00      51.12     295.00      54.37     494.7019
4     330.00      55.90     325.00      55.60     295.00      54.37     300.00      54.08     285.2610
4     335.00      59.95     330.00      55.90     300.00      54.08     305.00      53.63     298.1310
4     340.00      61.89     335.00      59.95     305.00      53.63     310.00      54.18     370.6322
4     345.00      63.80     340.00      61.89     310.00      54.18     315.00      55.11     489.3976
4     350.00      67.33     345.00      63.80     315.00      55.11     320.00      56.31     667.0609
4     355.00      71.16     350.00      67.33     320.00      56.31     325.00      55.60     875.1840
4     360.00      70.82     355.00      71.16     325.00      55.60     330.00      55.90    1120.3545
4     365.00      72.59     360.00      70.82     330.00      55.90     335.00      59.95    1549.0895
4     370.00      72.65     365.00      72.59     335.00      59.95     340.00      61.89    1949.4163
4     375.00      76.54     370.00      72.65     340.00      61.89     345.00      63.80    2246.8411
4     380.00      80.50     375.00      76.54     345.00      63.80     350.00      67.33    1318.2946
4     385.00      81.39     380.00      80.50     350.00      67.33     355.00      71.16    1266.2844
4     390.00      81.39     385.00      81.39     355.00      71.16     360.00      70.82    1619.0873
4     395.00      81.39     390.00      81.39     360.00      70.82     365.00      72.59    1243.0782
4     400.00      81.39     395.00      81.39     365.00      72.59     370.00      72.65    1089.6702
4      60.00       8.51      40.00       6.26       0.00       0.00      20.00       2.59     838.5263
4      70.00       9.31      50.00       7.72      10.00       1.13      30.00       4.78     951.0581
4      80.00      10.27      60.00       8.51      20.00       2.59      40.00       6.26     826.6775
4      90.00      11.39      70.00       9.31      30.00       4.78      50.00       7.72     787.0707
4     100.00      12.40      80.00      10.27      40.00       6.26      60.00       8.51     746.1710
4     110.00      13.27      90.00      11.39      50.00       7.72      70.00       9.31     754.8380
4     120.00      14.58     100.00      12.40      60.00       8.51      80.00      10.27     840.7694
4     130.00      16.23     110.00      13.27      70.00       9.31      90.00      11.39     777.0126
4     140.00      17.80     120.00      14.58      80.00      10.27     100.00      12.40     741.3719
4     150.00      19.79     130.00      16.23      90.00      11.39     110.00      13.27     776.2548
4     160.00      21.15     140.00      17.80     100.00      12.40     120.00      14.58     830.5944
4     170.00      22.92     150.00      19.79     110.00      13.27     130.00      16.23     882.0047
4     180.00      24.68     160.00      21.15     120.00      14.58     140.00      17.80     956.4453
4     190.00      25.87     170.00      22.92     130.00      16.23     150.00      19.79    1101.5190
4     200.00      27.92     180.00      24.68     140.00      17.80     160.00      21.15    1211.7626
4     210.00      28.92     190.00      25.87     150.00      19.79     170.00      22.92    1081.5234
4     220.00      29.96     200.00      27.92     160.00      21.15     180.00      24.68     925.8525
4     230.00      31.10     210.00      28.92     170.00      22.92     190.00      25.87     920.1675
4     240.00      34.34     220.00      29.96     180.00      24.68     200.00      27.92     886.8792
4     250.00      36.80     230.00      31.10     190.00      25.87     210.00      28.92     612.6671
4     260.00      42.77     240.00      34.34     200.00      27.92     220.00      29.96     298.2581
4     270.00      47.83     250.00      36.80     210.00      28.92     230.00      31.10     215.8248
4     280.00      50.82     260.00      42.77     220.00      29.96     240.00      34.34     145.8175
4     290.00      51.12     270.00      47.83     230.00      31.10     250.00      36.80     173.4023
4     300.00      54.08     280.00      50.82     240.00      34.34     260.00      42.77     242.3864
4     310.00      54.18     290.00      51.12     250.00      36.80     270.00      47.83     500.6668
4     320.00      56.31     300.00      54.08     260.00      42.77     280.00      50.82     616.8857
4     330.00      55.90     310.00      54.18     270.00      47.83     290.00      51.12     550.4636
4     340.00      61.89     320.00      56.31     280.00      50.82     300.00      54.08     343.3824
4     350.00      67.33     330.00      55.90     290.00      51.12     310.00      54.18     323.7977
4     360.00      70.82     340.00      61.89     300.00      54.08     320.00      56.31     525.8347
4     370.00      72.65     350.00      67.33     310.00      54.18     330.00      55.90     906.6335
4     380.00      80.50     360.00      70.82     320.00      56.31     340.00      61.89    1479.3584
4     390.00      81.39     370.00      72.65     330.00      55.90     350.00      67.33    1646.3843
4     400.00      81.39     380.00      80.50     340.00      61.89     360.00      70.82    1458.0056
4      40.00       6.26      35.00       5.50       0.00       0.00       5.00       0.50     698.7380
4      45.00       6.94      40.00       6.26       5.00       0.50      10.00       1.13     675.8848
4      50.00       7.72      45.00       6.94      10.00       1.13      15.00       2.00     814.1968
4      55.00       8.14      50.00       7.72      15.00       2.00      20.00       2.59     996.6529
4      60.00       8.51      55.00       8.14      20.00       2.59      25.00       3.85     990.4831
4      65.00       8.95      60.00       8.51      25.00       3.85      30.00       4.78     856.8156
4      70.00       9.31      65.00       8.95      30.00       4.78      35.00       5.50     921.6754
4      75.00       9.72      70.00       9.31      35.00       5.50      40.00       6.26     684.4930
4      80.00      10.27      75.00       9.72      40.00       6.26      45.00       6.94     764.2205
4      85.00      10.83      80.00      10.27      45.00       6.94      50.00       7.72     755.0582
4      90.00      11.39      85.00      10.83      50.00       7.72      55.00       8.14     681.1627
4      95.00      11.93      90.00      11.39      55.00       8.14      60.00       8.51     712.6188
4     100.00      12.40      95.00      11.93      60.00       8.51      65.00       8.95     721.0369
4     105.00      12.86     100.00      12.40      65.00       8.95      70.00       9.31     794.9642
4     110.00      13.27     105.00      12.86      70.00       9.31      75.00       9.72     837.4933
4     115.00      13.87     110.00      13.27      75.00       9.72      80.00      10.27     886.1078
4     120.00      14.58     115.00      13.87      80.00      10.27      85.00      10.83     778.9828
4     125.00      15.55     120.00      14.58      85.00      10.83      90.00      11.39     747.4949
4     130.00      16.23     125.00      15.55      90.00      11.39      95.00      11.93     665.6827
4     135.00      16.98     130.00      16.23      95.00      11.93     100.00      12.40     744.6660
4     140.00      17.80     135.00      16.98     100.00      12.40     105.00      12.86     734.5536
4     145.00      18.89     140.00      17.80     105.00      12.86     110.00      13.27     847.9012
4     150.00      19.79     145.00      18.89     110.00      13.27     115.00      13.87     790.3671
4     155.00      20.49     150.00      19.79     115.00      13.87     120.00      14.58     797.1598
4     160.00      21.15     155.00      20.49     120.00      14.58     125.00      15.55     993.0587
4     165.00      21.92     160.00      21.15     125.00      15.55     130.00      16.23     866.8911
4     170.00      22.92     165.00      21.92     130.00      16.23     135.00      16.98    1039.1661
4     175.00      23.94     170.00      22.92     135.00      16.98     140.00      17.80    1004.1000
4     180.00      24.68     175.00      23.94     140.00      17.80     145.00      18.89    1059.0586
4     185.00      25.27     180.00      24.68     145.00      18.89     150.00      19.79    1269.9308
4     190.00      25.87     185.00      25.27     150.00      19.79     155.00      20.49    1069.9995
4     195.00      26.78     190.00      25.87     155.00      20.49     160.00      21.15    1334.6903
4     200.00      27.92     195.00      26.78     160.00      21.15     165.00      21.92     909.2091
4     205.00      28.51     200.00      27.92     165.00      21.92     170.00      22.92    1003.1711
4     210.00      28.92     205.00      28.51     170.00      22.92     175.00      23.94    1068.1682
4     215.00      29.45     210.00      28.92     175.00      23.94     180.00      24.68     879.3522
4     220.00      29.96     215.00      29.45     180.00      24.68     185.00      25.27     911.7794
4     225.00      30.41     220.00      29.96     185.00      25.27     190.00      25.87    1000.1680
4     230.00      31.10     225.00      30.41     190.00      25.87     195.00      26.78    1031.6664
4     235.00      32.36     230.00      31.10     195.00      26.78     200.00      27.92     780.0225
4     240.00      34.34     235.00      32.36     200.00      27.92     205.00      28.51     501.3338
4     245.00      35.08     240.00      34.34     205.00      28.51     210.00      28.92     375.4713
4     250.00      36.80     245.00      35.08     210.00      28.92     215.00      29.45     349.7326
4     255.00      38.95     250.00      36.80     215.00      29.45     220.00      29.96     236.9460
4     260.00      42.77     255.00      38.95     220.00      29.96     225.00      30.41     207.3118
4     265.00      45.13     260.00      42.77     225.00      30.41     230.00      31.10     156.5207
4     270.00      47.83     265.00      45.13     230.00      31.10     235.00      32.36     139.3850
4     275.00      49.09     270.00      47.83     235.00      32.36     240.00      34.34     118.8609
4     280.00      50.82     275.00      49.09     240.00      34.34     245.00      35.08     169.1622
4     285.00      51.50     280.00      50.82     245.00      35.08     250.00      36.80     193.5212
4     290.00      51.12     285.00      51.50     250.00      36.80     255.00      38.95     196.9175
4     295.00      54.37     290.00      51.12     255.00      38.95     260.00      42.77     296.5981
4     300.00      54.08     295.00      54.37     260.00      42.77     265.00      45.13     365.7742
4     305.00      53.63     300.00      54.08     265.00      45.13     270.00      47.83     546.4132
4     310.00      54.18     305.00      53.63     270.00      47.83     275.00      49.09     534.5802
4     315.00      55.11     310.00      54.18     275.00      49.09     280.00      50.82     669.8997
4     320.00      56.31     315.00      55.11     280.00      50.82     285.00      51.50     521.3206
4     325.00      55.60     320.00      56.31     285.00      51.50     290.00      51.12     338.3134
4     330.00      55.90     325.00      55.60     290.00      51.12     295.00      54.37     275.5732
4     335.00      59.95     330.00      55.90     295.00      54.37     300.00      54.08     245.4914
4     340.00      61.89     335.00      59.95     300.00      54.08     305.00      53.63     324.8401
4     345.00      63.80     340.00      61.89     305.00      53.63     310.00      54.18     359.5041
4     350.00      67.33     345.00      63.80     310.00      54.18     315.00      55.11     502.2754
4     355.00      71.16     350.00      67.33     315.00      55.11     320.00      56.31     669.7625
4     360.00      70.82     355.00      71.16     320.00      56.31     325.00      55.60     984.8041
4     365.00      72.59     360.00      70.82     325.00      55.60     330.00      55.90    1166.0463
4     370.00      72.65     365.00      72.59     330.00      55.90     335.00      59.95    1743.2719
4     375.00      76.54     370.00      72.65     335.00      59.95     340.00      61.89    1957.9231
4     380.00      80.50     375.00      76.54     340.00      61.89     345.00      63.80    1339.1713
4     385.00      81.39     380.00      80.50     345.00      63.80     350.00      67.33    1271.1447
4     390.00      81.39     385.00      81.39     350.00      67.33     355.00      71.16    1605.3397
4     395.00      81.39     390.00      81.39     355.00      71.16     360.00      70.82    1523.6541
4     400.00      81.39     395.00      81.39     360.00      70.82     365.00      72.59    1316.8563
4      50.00       7.72      40.00       6.26       0.00       0.00      10.00       1.13     734.8537
4      60.00       8.51      50.00       7.72      10.00       1.13      20.00       2.59     977.0347
4      70.00       9.31      60.00       8.51      20.00       2.59      30.00       4.78     906.6636
4      80.00      10.27      70.00       9.31      30.00       4.78      40.00       6.26     822.4363
4      90.00      11.39      80.00      10.27      40.00       6.26      50.00       7.72     729.3251
4     100.00      12.40      90.00      11.39      50.00       7.72      60.00       8.51     807.8976
4     110.00      13.27     100.00      12.40      60.00       8.51      70.00       9.31     876.2706
4     120.00      14.58     110.00      13.27      70.00       9.31      80.00      10.27     880.6852
4     130.00      16.23     120.00      14.58      80.00      10.27      90.00      11.39     721.2632
4     140.00      17.80     130.00      16.23      90.00      11.39     100.00      12.40     705.5370
4     150.00      19.79     140.00      17.80     100.00      12.40     110.00      13.27     856.2429
4     160.00      21.15     150.00      19.79     110.00      13.27     120.00      14.58     881.2695
4     170.00      22.92     160.00      21.15     120.00      14.58     130.00      16.23     950.1703
4     180.00      24.68     170.00      22.92     130.00      16.23     140.00      17.80    1025.1199
4     190.00      25.87     180.00      24.68     140.00      17.80     150.00      19.79    1266.3414
4     200.00      27.92     190.00      25.87     150.00      19.79     160.00      21.15    1210.6675
4     210.00      28.92     200.00      27.92     160.00      21.15     170.00      22.92    1011.0902
4     220.00      29.96     210.00      28.92     170.00      22.92     180.00      24.68     927.5923
4     230.00      31.10     220.00      29.96     180.00      24.68     190.00      25.87    1042.9120
4     240.00      34.34     230.00      31.10     190.00      25.87     200.00      27.92     696.7060
4     250.00      36.80     240.00      34.34     200.00      27.92     210.00      28.92     385.9371
4     260.00      42.77     250.00      36.80     210.00      28.92     220.00      29.96     235.5836
4     270.00      47.83     260.00      42.77     220.00      29.96     230.00      31.10     179.5920
4     280.00      50.82     270.00      47.83     230.00      31.10     240.00      34.34     127.5091
4     290.00      51.12     280.00      50.82     240.00      34.34     250.00      36.80     171.8906
4     300.00      54.08     290.00      51.12     250.00      36.80     260.00      42.77     234.1002
4     310.00      54.18     300.00      54.08     260.00      42.77     270.00      47.83     408.6056
4     320.00      56.31     310.00      54.18     270.00      47.83     280.00      50.82     498.9251
4     330.00      55.90     320.00      56.31     280.00      50.82     290.00      51.12     265.1247
4     340.00      61.89     330.00      55.90     290.00      51.12     300.00      54.08     266.0370
4     350.00      67.33     340.00      61.89     300.00      54.08     310.00      54.18     353.4235
4     360.00      70.82     350.00      67.33     310.00      54.18     320.00      56.31     613.3966
4     370.00      72.65     360.00      70.82     320.00      56.31     330.00      55.90    1133.6274
4     380.00      80.50     370.00      72.65     330.00      55.90     340.00      61.89    1533.2172
4     390.00      81.39     380.00      80.50     340.00      61.89     350.00      67.33    1419.3019
4     400.00      81.39     390.00      81.39     350.00      67.33     360.00      70.82    1566.5734
4      45.00       6.94      40.00       6.26       0.00       0.00       5.00       0.50     705.3620
4      50.00       7.72      45.00       6.94       5.00       0.50      10.00       1.13     782.3118
4      55.00       8.14      50.00       7.72      10.00       1.13      15.00       2.00     888.6544
4      60.00       8.51      55.00       8.14      15.00       2.00      20.00       2.59    1045.3281
4      65.00       8.95      60.00       8.51      20.00       2.59      25.00       3.85     898.1546
4      70.00       9.31      65.00       8.95      25.00       3.85      30.00       4.78     928.0247
4      75.00       9.72      70.00       9.31      30.00       4.78      35.00       5.50     956.0265
4      80.00      10.27      75.00       9.72      35.00       5.50      40.00       6.26     732.5934
4      85.00      10.83      80.00      10.27      40.00       6.26      45.00       6.94     713.2416
4      90.00      11.39      85.00      10.83      45.00       6.94      50.00       7.72     721.5352
4      95.00      11.93      90.00      11.39      50.00       7.72      55.00       8.14     760.6609
4     100.00      12.40      95.00      11.93      55.00       8.14      60.00       8.51     896.2546
4     105.00      12.86     100.00      12.40      60.00       8.51      65.00       8.95     844.6765
4     110.00      13.27     105.00      12.86      65.00       8.95      70.00       9.31     949.4872
4     115.00      13.87     110.00      13.27      70.00       9.31      75.00       9.72     818.0681
4     120.00      14.58     115.00      13.87      75.00       9.72      80.00      10.27     933.0360
4     125.00      15.55     120.00      14.58      80.00      10.27      85.00      10.83     750.7744
4     130.00      16.23     125.00      15.55      85.00      10.83      90.00      11.39     668.3809
4     135.00      16.98     130.00      16.23      90.00      11.39      95.00      11.93     670.2382
4     140.00      17.80     135.00      16.98      95.00      11.93     100.00      12.40     717.9307
4     145.00      18.89     140.00      17.80     100.00      12.40     105.00      12.86     834.1313
4     150.00      19.79     145.00      18.89     105.00      12.86     110.00      13.27     884.0943
4     155.00      20.49     150.00      19.79     110.00      13.27     115.00      13.87     785.0209
4     160.00      21.15     155.00      20.49     115.00      13.87     120.00      14.58    1023.1531
4     165.00      21.92     160.00      21.15     120.00      14.58     125.00      15.55     910.3069
4     170.00      22.92     165.00      21.92     125.00      15.55     130.00      16.23    1022.2664
4     175.00      23.94     170.00      22.92     130.00      16.23     135.00      16.98    1083.7485
4     180.00      24.68     175.00      23.94     135.00      16.98     140.00      17.80     978.6844
4     185.00      25.27     180.00      24.68     140.00      17.80     145.00      18.89    1345.2645
4     190.00      25.87     185.00      25.27     145.00      18.89     150.00      19.79    1192.6996
4     195.00      26.78     190.00      25.87     150.00      19.79     155.00      20.49    1196.8005
4     200.00      27.92     195.00      26.78     155.00      20.49     160.00      21.15    1177.0560
4     205.00      28.51     200.00      27.92     160.00      21.15     165.00      21.92     906.8394
4     210.00      28.92     205.00      28.51     165.00      21.92     170.00      22.92    1126.8396
4     215.00      29.45     210.00      28.92     170.00      22.92     175.00      23.94    1072.5778
4     220.00      29.96     215.00      29.45     175.00      23.94     180.00      24.68     822.6440
4     225.00      30.41     220.00      29.96     180.00      24.68     185.00      25.27    1146.1725
4     230.00      31.10     225.00      30.41     185.00      25.27     190.00      25.87     953.3664
4     235.00      32.36     230.00      31.10     190.00      25.87     195.00      26.78     892.7316
4     240.00      34.34     235.00      32.36     195.00      26.78     200.00      27.92     474.2338
4     245.00      35.08     240.00      34.34     200.00      27.92     205.00      28.51     351.8517
4     250.00      36.80     245.00      35.08     205.00      28.51     210.00      28.92     417.5660
4     255.00      38.95     250.00      36.80     210.00      28.92     215.00      29.45     311.6660
4     260.00      42.77     255.00      38.95     215.00      29.45     220.00      29.96     177.4039
4     265.00      45.13     260.00      42.77     220.00      29.96     225.00      30.41     187.4678
4     270.00      47.83     265.00      45.13     225.00      30.41     230.00      31.10     175.7422
4     275.00      49.09     270.00      47.83     230.00      31.10     235.00      32.36     127.3507
4     280.00      50.82     275.00      49.09     235.00      32.36     240.00      34.34     129.5056
4     285.00      51.50     280.00      50.82     240.00      34.34     245.00      35.08     153.1349
4     290.00      51.12     285.00      51.50     245.00      35.08     250.00      36.80     177.3517
4     295.00      54.37     290.00      51.12     250.00      36.80     255.00      38.95     218.3821
4     300.00      54.08     295.00      54.37     255.00      38.95     260.00      42.77     202.0410
4     305.00      53.63     300.00      54.08     260.00      42.77     265.00      45.13     300.7502
4     310.00      54.18     305.00      53.63     265.00      45.13     270.00      47.83     447.2952
4     315.00      55.11     310.00      54.18     270.00      47.83     275.00      49.09     438.5455
4     320.00      56.31     315.00      55.11     275.00      49.09     280.00      50.82     456.3117
4     325.00      55.60     320.00      56.31     280.00      50.82     285.00      51.50     290.4180
4     330.00      55.90     325.00      55.60     285.00      51.50     290.00      51.12     191.6558
4     335.00      59.95     330.00      55.90     290.00      51.12     295.00      54.37     249.5981
4     340.00      61.89     335.00      59.95     295.00      54.37     300.00      54.08     280.8046
4     345.00      63.80     340.00      61.89     300.00      54.08     305.00      53.63     330.0448
4     350.00      67.33     345.00      63.80     305.00      53.63     310.00      54.18     370.9249
4     355.00      71.16     350.00      67.33     310.00      54.18     315.00      55.11     480.5395
4     360.00      70.82     355.00      71.16     315.00      55.11     320.00      56.31     718.7105
4     365.00      72.59     360.00      70.82     320.00      56.31     325.00      55.60     993.0614
4     370.00      72.65     365.00      72.59     325.00      55.60     330.00      55.90    1270.5377
4     375.00      76.54     370.00      72.65     330.00      55.90     335.00      59.95    1680.4387
4     380.00      80.50     375.00      76.54     335.00      59.95     340.00      61.89    1143.7341
4     385.00      81.39     380.00      80.50     340.00      61.89     345.00      63.80    1308.7444
4     390.00      81.39     385.00      81.39     345.00      63.80     350.00      67.33    1593.1241
4     395.00      81.39     390.00      81.39     350.00      67.33     355.00      71.16    1526.2428
4     400.00      81.39     395.00      81.39     355.00      71.16     360.00      70.82    1616.6053
4      50.00       7.72      45.00       6.94       0.00       0.00       5.00       0.50     812.3386
4      55.00       8.14      50.00       7.72       5.00       0.50      10.00       1.13     852.0900
4      60.00       8.51      55.00       8.14      10.00       1.13      15.00       2.00     965.6974
4      65.00       8.95      60.00       8.51      15.00       2.00      20.00       2.59     976.1702
4      70.00       9.31      65.00       8.95      20.00       2.59      25.00       3.85     996.9281
4      75.00       9.72      70.00       9.31      25.00       3.85      30.00       4.78     964.2079
4      80.00      10.27      75.00       9.72      30.00       4.78      35.00       5.50    1050.4525
4      85.00      10.83      80.00      10.27      35.00       5.50      40.00       6.26     707.3842
4      90.00      11.39      85.00      10.83      40.00       6.26      45.00       6.94     689.6110
4      95.00      11.93      90.00      11.39      45.00       6.94      50.00       7.72     810.3311
4     100.00      12.40      95.00      11.93      50.00       7.72      55.00       8.14     947.6663
4     105.00      12.86     100.00      12.40      55.00       8.14      60.00       8.51    1026.5280
4     110.00      13.27     105.00      12.86      60.00       8.51      65.00       8.95     990.4635
4     115.00      13.87     110.00      13.27      65.00       8.95      70.00       9.31     922.3856
4     120.00      14.58     115.00      13.87      70.00       9.31      75.00       9.72     875.0578
4     125.00      15.55     120.00      14.58      75.00       9.72      80.00      10.27     905.7988
4     130.00      16.23     125.00      15.55      80.00      10.27      85.00      10.83     685.9478
4     135.00      16.98     130.00      16.23      85.00      10.83      90.00      11.39     682.6555
4     140.00      17.80     135.00      16.98      90.00      11.39      95.00      11.93     660.5224
4     145.00      18.89     140.00      17.80      95.00      11.93     100.00      12.40     819.5994
4     150.00      19.79     145.00      18.89     100.00      12.40     105.00      12.86     865.4084
4     155.00      20.49     150.00      19.79     105.00      12.86     110.00      13.27     870.6799
4     160.00      21.15     155.00      20.49     110.00      13.27     115.00      13.87     991.6680
4     165.00      21.92     160.00      21.15     115.00      13.87     120.00      14.58     932.0566
4     170.00      22.92     165.00      21.92     120.00      14.58     125.00      15.55    1081.6357
4     175.00      23.94     170.00      22.92     125.00      15.55     130.00      16.23    1080.0592
4     180.00      24.68     175.00      23.94     130.00      16.23     135.00      16.98    1050.6879
4     185.00      25.27     180.00      24.68     135.00      16.98     140.00      17.80    1246.2987
4     190.00      25.87     185.00      25.27     140.00      17.80     145.00      18.89    1257.9364
4     195.00      26.78     190.00      25.87     145.00      18.89     150.00      19.79    1295.1567
4     200.00      27.92     195.00      26.78     150.00      19.79     155.00      20.49    1022.7618
4     205.00      28.51     200.00      27.92     155.00      20.49     160.00      21.15    1154.4185
4     210.00      28.92     205.00      28.51     160.00      21.15     165.00      21.92    1008.6948
4     215.00      29.45     210.00      28.92     165.00      21.92     170.00      22.92    1123.2318
4     220.00      29.96     215.00      29.45     170.00      22.92     175.00      23.94     980.3401
4     225.00      30.41     220.00      29.96     175.00      23.94     180.00      24.68    1030.7939
4     230.00      31.10     225.00      30.41     180.00      24.68     185.00      25.27    1110.6350
4     235.00      32.36     230.00      31.10     185.00      25.27     190.00      25.87     812.8271
4     240.00      34.34     235.00      32.36     190.00      25.87     195.00      26.78     532.9667
4     245.00      35.08     240.00      34.34     195.00      26.78     200.00      27.92     322.9630
4     250.00      36.80     245.00      35.08     200.00      27.92     205.00      28.51     388.3423
4     255.00      38.95     250.00      36.80     205.00      28.51     210.00      28.92     364.0468
4     260.00      42.77     255.00      38.95     210.00      28.92     215.00      29.45     226.5735
4     265.00      45.13     260.00      42.77     215.00      29.45     220.00      29.96     156.3706
4     270.00      47.83     265.00      45.13     220.00      29.96     225.00      30.41     209.2583
4     275.00      49.09     270.00      47.83     225.00      30.41     230.00      31.10     162.8274
4     280.00      50.82     275.00      49.09     230.00      31.10     235.00      32.36     140.5834
4     285.00      51.50     280.00      50.82     235.00      32.36     240.00      34.34     113.5169
4     290.00      51.12     285.00      51.50     240.00      34.34     245.00      35.08     129.9353
4     295.00      54.37     290.00      51.12     245.00      35.08     250.00      36.80     219.7312
4     300.00      54.08     295.00      54.37     250.00      36.80     255.00      38.95     171.2712
4     305.00      53.63     300.00      54.08     255.00      38.95     260.00      42.77     192.0257
4     310.00      54.18     305.00      53.63     260.00      42.77     265.00      45.13     231.5509
4     315.00      55.11     310.00      54.18     265.00      45.13     270.00      47.83     351.4138
4     320.00      56.31     315.00      55.11     270.00      47.83     275.00      49.09     295.3243
4     325.00      55.60     320.00      56.31     275.00      49.09     280.00      50.82     253.0632
4     330.00      55.90     325.00      55.60     280.00      50.82     285.00      51.50     169.5024
4     335.00      59.95     330.00      55.90     285.00      51.50     290.00      51.12     193.6588
4     340.00      61.89     335.00      59.95     290.00      51.12     295.00      54.37     293.1630
4     345.00      63.80     340.00      61.89     295.00      54.37     300.00      54.08     291.8013
4     350.00      67.33     345.00      63.80     300.00      54.08     305.00      53.63     337.3999
4     355.00      71.16     350.00      67.33     305.00      53.63     310.00      54.18     362.3379
4     360.00      70.82     355.00      71.16     310.00      54.18     315.00      55.11     534.2990
4     365.00      72.59     360.00      70.82     315.00      55.11     320.00      56.31     729.0797
4     370.00      72.65     365.00      72.59     320.00      56.31     325.00      55.60    1060.0873
4     375.00      76.54     370.00      72.65     325.00      55.60     330.00      55.90    1190.3381
4     380.00      80.50     375.00      76.54     330.00      55.90     335.00      59.95     962.4888
4     385.00      81.39     380.00      80.50     335.00      59.95     340.00      61.89    1122.8688
4     390.00      81.39     385.00      81.39     340.00      61.89     345.00      63.80    1629.5743
4     395.00      81.39     390.00      81.39     345.00      63.80     350.00      67.33    1542.3197
4     400.00      81.39     395.00      81.39     350.00      67.33     355.00      71.16    1620.0627
4      60.00       8.51      50.00       7.72       0.00       0.00      10.00       1.13     921.2721
4      70.00       9.31      60.00       8.51      10.00       1.13      20.00       2.59     988.5612
4      80.00      10.27      70.00       9.31      20.00       2.59      30.00       4.78    1058.1425
4      90.00      11.39      80.00      10.27      30.00       4.78      40.00       6.26     828.3362
4     100.00      12.40      90.00      11.39      40.00       6.26      50.00       7.72     891.3578
4     110.00      13.27     100.00      12.40      50.00       7.72      60.00       8.51    1124.3308
4     120.00      14.58     110.00      13.27      60.00       8.51      70.00       9.31     952.6490
4     130.00      16.23     120.00      14.58      70.00       9.31      80.00      10.27     847.0085
4     140.00      17.80     130.00      16.23      80.00      10.27      90.00      11.39     690.1765
4     150.00      19.79     140.00      17.80      90.00      11.39     100.00      12.40     804.4651
4     160.00      21.15     150.00      19.79     100.00      12.40     110.00      13.27     960.5244
4     170.00      22.92     160.00      21.15     110.00      13.27     120.00      14.58     995.0605
4     180.00      24.68     170.00      22.92     120.00      14.58     130.00      16.23    1089.1387
4     190.00      25.87     180.00      24.68     130.00      16.23     140.00      17.80    1236.5912
4     200.00      27.92     190.00      25.87     140.00      17.80     150.00      19.79    1247.7577
4     210.00      28.92     200.00      27.92     150.00      19.79     160.00      21.15    1129.1337
4     220.00      29.96     210.00      28.92     160.00      21.15     170.00      22.92    1015.2748
4     230.00      31.10     220.00      29.96     170.00      22.92     180.00      24.68    1069.8065
4     240.00      34.34     230.00      31.10     180.00      24.68     190.00      25.87     711.6989
4     250.00      36.80     240.00      34.34     190.00      25.87     200.00      27.92     373.4346
4     260.00      42.77     250.00      36.80     200.00      27.92     210.00      28.92     302.4136
4     270.00      47.83     260.00      42.77     210.00      28.92     220.00      29.96     183.6663
4     280.00      50.82     270.00      47.83     220.00      29.96     230.00      31.10     184.2812
4     290.00      51.12     280.00      50.82     230.00      31.10     240.00      34.34     116.9717
4     300.00      54.08     290.00      51.12     240.00      34.34     250.00      36.80     175.8769
4     310.00      54.18     300.00      54.08     250.00      36.80     260.00      42.77     163.5391
4     320.00      56.31     310.00      54.18     260.00      42.77     270.00      47.83     258.8553
4     330.00      55.90     320.00      56.31     270.00      47.83     280.00      50.82     194.8245
4     340.00      61.89     330.00      55.90     280.00      50.82     290.00      51.12     201.9017
4     350.00      67.33     340.00      61.89     290.00      51.12     300.00      54.08     304.9926
4     360.00      70.82     350.00      67.33     300.00      54.08     310.00      54.18     358.2648
4     370.00      72.65     360.00      70.82     310.00      54.18     320.00      56.31     652.6885
4     380.00      80.50     370.00      72.65     320.00      56.31     330.00      55.90     895.6479
4     390.00      81.39     380.00      80.50     330.00      55.90     340.00      61.89    1156.1638
4     400.00      81.39     390.00      81.39     340.00      61.89     350.00      67.33    1609.7219
4      90.00      11.39      60.00       8.51       0.00       0.00      30.00       4.78    1037.5889
4     100.00      12.40      70.00       9.31      10.00       1.13      40.00       6.26    1017.6328
4     110.00      13.27      80.00      10.27      20.00       2.59      50.00       7.72     975.2214
4     120.00      14.58      90.00      11.39      30.00       4.78      60.00       8.51    1022.9711
4     130.00      16.23     100.00      12.40      40.00       6.26      70.00       9.31    1017.7233
4     140.00      17.80     110.00      13.27      50.00       7.72      80.00      10.27     927.7940
4     150.00      19.79     120.00      14.58      60.00       8.51      90.00      11.39     802.5274
4     160.00      21.15     130.00      16.23      70.00       9.31     100.00      12.40     793.9829
4     170.00      22.92     140.00      17.80      80.00      10.27     110.00      13.27     900.2604
4     180.00      24.68     150.00      19.79      90.00      11.39     120.00      14.58     987.7017
4     190.00      25.87     160.00      21.15     100.00      12.40     130.00      16.23    1085.1803
4     200.00      27.92     170.00      22.92     110.00      13.27     140.00      17.80    1141.9777
4     210.00      28.92     180.00      24.68     120.00      14.58     150.00      19.79    1215.5363
4     220.00      29.96     190.00      25.87     130.00      16.23     160.00      21.15    1151.8398
4     230.00      31.10     200.00      27.92     140.00      17.80     170.00      22.92    1057.9916
4     240.00      34.34     210.00      28.92     150.00      19.79     180.00      24.68     953.9647
4     250.00      36.80     220.00      29.96     160.00      21.15     190.00      25.87     830.2419
4     260.00      42.77     230.00      31.10     170.00      22.92     200.00      27.92     527.7433
4     270.00      47.83     240.00      34.34     180.00      24.68     210.00      28.92     330.1113
4     280.00      50.82     250.00      36.80     190.00      25.87     220.00      29.96     237.0611
4     290.00      51.12     260.00      42.77     200.00      27.92     230.00      31.10     193.8279
4     300.00      54.08     270.00      47.83     210.00      28.92     240.00      34.34     158.9504
4     310.00      54.18     280.00      50.82     220.00      29.96     250.00      36.80     158.7163
4     320.00      56.31     290.00      51.12     230.00      31.10     260.00      42.77     173.7967
4     330.00      55.90     300.00      54.08     240.00      34.34     270.00      47.83     237.3834
4     340.00      61.89     310.00      54.18     250.00      36.80     280.00      50.82     273.4926
4     350.00      67.33     320.00      56.31     260.00      42.77     290.00      51.12     214.4229
4     360.00      70.82     330.00      55.90     270.00      47.83     300.00      54.08     253.4834
4     370.00      72.65     340.00      61.89     280.00      50.82     310.00      54.18     328.4392
4     380.00      80.50     350.00      67.33     290.00      51.12     320.00      56.31     477.7056
4     390.00      81.39     360.00      70.82     300.00      54.08     330.00      55.90     744.8873
4     400.00      81.39     370.00      72.65     310.00      54.18     340.00      61.89    1049.3397
4      80.00      10.27      60.00       8.51       0.00       0.00      20.00       2.59    1064.6350
4      90.00      11.39      70.00       9.31      10.00       1.13      30.00       4.78    1130.0504
4     100.00      12.40      80.00      10.27      20.00       2.59      40.00       6.26    1021.0864
4     110.00      13.27      90.00      11.39      30.00       4.78      50.00       7.72    1066.8683
4     120.00      14.58     100.00      12.40      40.00       6.26      60.00       8.51    1163.9843
4     130.00      16.23     110.00      13.27      50.00       7.72      70.00       9.31    1011.5109
4     140.00      17.80     120.00      14.58      60.00       8.51      80.00      10.27     865.8174
4     150.00      19.79     130.00      16.23      70.00       9.31      90.00      11.39     787.4304
4     160.00      21.15     140.00      17.80      80.00      10.27     100.00      12.40     843.1436
4     170.00      22.92     150.00      19.79      90.00      11.39     110.00      13.27     983.6226
4     180.00      24.68     160.00      21.15     100.00      12.40     120.00      14.58    1081.0326
4     190.00      25.87     170.00      22.92     110.00      13.27     130.00      16.23    1178.6342
4     200.00      27.92     180.00      24.68     120.00      14.58     140.00      17.80    1230.1732
4     210.00      28.92     190.00      25.87     130.00      16.23     150.00      19.79    1170.8907
4     220.00      29.96     200.00      27.92     140.00      17.80     160.00      21.15    1100.2018
4     230.00      31.10     210.00      28.92     150.00      19.79     170.00      22.92    1059.3149
4     240.00      34.34     220.00      29.96     160.00      21.15     180.00      24.68     928.4537
4     250.00      36.80     230.00      31.10     170.00      22.92     190.00      25.87     576.5732
4     260.00      42.77     240.00      34.34     180.00      24.68     200.00      27.92     336.6365
4     270.00      47.83     250.00      36.80     190.00      25.87     210.00      28.92     272.1725
4     280.00      50.82     260.00      42.77     200.00      27.92     220.00      29.96     208.6284
4     290.00      51.12     270.00      47.83     210.00      28.92     230.00      31.10     185.8491
4     300.00      54.08     280.00      50.82     220.00      29.96     240.00      34.34     156.1919
4     310.00      54.18     290.00      51.12     230.00      31.10     250.00      36.80     152.7508
4     320.00      56.31     300.00      54.08     240.00      34.34     260.00      42.77     149.8844
4     330.00      55.90     310.00      54.18     250.00      36.80     270.00      47.83     181.3297
4     340.00      61.89     320.00      56.31     260.00      42.77     280.00      50.82     172.6122
4     350.00      67.33     330.00      55.90     270.00      47.83     290.00      51.12     208.8908
4     360.00      70.82     340.00      61.89     280.00      50.82     300.00      54.08     288.4826
4     370.00      72.65     350.00      67.33     290.00      51.12     310.00      54.18     350.3077
4     380.00      80.50     360.00      70.82     300.00      54.08     320.00      56.31     500.0275
4     390.00      81.39     370.00      72.65     310.00      54.18     330.00      55.90     671.4182
4     400.00      81.39     380.00      80.50     320.00      56.31     340.00      61.89    1018.5441
4      70.00       9.31      60.00       8.51       0.00       0.00      10.00       1.13     969.9416
4      80.00      10.27      70.00       9.31      10.00       1.13      20.00       2.59    1205.1304
4      90.00      11.39      80.00      10.27      20.00       2.59      30.00       4.78    1094.3939
4     100.00      12.40      90.00      11.39      30.00       4.78      40.00       6.26    1050.0465
4     110.00      13.27     100.00      12.40      40.00       6.26      50.00       7.72    1202.6432
4     120.00      14.58     110.00      13.27      50.00       7.72      60.00       8.51    1162.1289
4     130.00      16.23     120.00      14.58      60.00       8.51      70.00       9.31     916.4965
4     140.00      17.80     130.00      16.23      70.00       9.31      80.00      10.27     823.5465
4     150.00      19.79     140.00      17.80      80.00      10.27      90.00      11.39     803.8270
4     160.00      21.15     150.00      19.79      90.00      11.39     100.00      12.40     907.8474
4     170.00      22.92     160.00      21.15     100.00      12.40     110.00      13.27    1072.6227
4     180.00      24.68     170.00      22.92     110.00      13.27     120.00      14.58    1141.4989
4     190.00      25.87     180.00      24.68     120.00      14.58     130.00      16.23    1285.9873
4     200.00      27.92     190.00      25.87     130.00      16.23     140.00      17.80    1169.7422
4     210.00      28.92     200.00      27.92     140.00      17.80     150.00      19.79    1122.3271
4     220.00      29.96     210.00      28.92     150.00      19.79     160.00      21.15    1068.3014
4     230.00      31.10     220.00      29.96     160.00      21.15     170.00      22.92    1090.9698
4     240.00      34.34     230.00      31.10     170.00      22.92     180.00      24.68     684.5141
4     250.00      36.80     240.00      34.34     180.00      24.68     190.00      25.87     376.4630
4     260.00      42.77     250.00      36.80     190.00      25.87     200.00      27.92     270.8474
4     270.00      47.83     260.00      42.77     200.00      27.92     210.00      28.92     240.2218
4     280.00      50.82     270.00      47.83     210.00      28.92     220.00      29.96     193.3233
4     290.00      51.12     280.00      50.82     220.00      29.96     230.00      31.10     177.0074
4     300.00      54.08     290.00      51.12     230.00      31.10     240.00      34.34     136.1369
4     310.00      54.18     300.00      54.08     240.00      34.34     250.00      36.80     152.9680
4     320.00      56.31     310.00      54.18     250.00      36.80     260.00      42.77     124.3322
4     330.00      55.90     320.00      56.31     260.00      42.77     270.00      47.83     139.2086
4     340.00      61.89     330.00      55.90     270.00      47.83     280.00      50.82     185.0977
4     350.00      67.33     340.00      61.89     280.00      50.82     290.00      51.12     251.4057
4     360.00      70.82     350.00      67.33     290.00      51.12     300.00      54.08     318.1345
4     370.00      72.65     360.00      70.82     300.00      54.08     310.00      54.18     386.0192
4     380.00      80.50     370.00      72.65     310.00      54.18     320.00      56.31     482.3120
4     390.00      81.39     380.00      80.50     320.00      56.31     330.00      55.90     658.6743
4     400.00      81.39     390.00      81.39     330.00      55.90     340.00      61.89    1303.0679
4     120.00      14.58      80.00      10.27       0.00       0.00      40.00       6.26    1283.5718
4     130.00      16.23      90.00      11.39      10.00       1.13      50.00       7.72    1274.9840
4     140.00      17.80     100.00      12.40      20.00       2.59      60.00       8.51    1236.9304
4     150.00      19.79     110.00      13.27      30.00       4.78      70.00       9.31    1075.4199
4     160.00      21.15     120.00      14.58      40.00       6.26      80.00      10.27     992.3839
4     170.00      22.92     130.00      16.23      50.00       7.72      90.00      11.39     941.5278
4     180.00      24.68     140.00      17.80      60.00       8.51     100.00      12.40     987.5358
4     190.00      25.87     150.00      19.79      70.00       9.31     110.00      13.27    1093.1385
4     200.00      27.92     160.00      21.15      80.00      10.27     120.00      14.58    1142.6676
4     210.00      28.92     170.00      22.92      90.00      11.39     130.00      16.23    1185.4938
4     220.00      29.96     180.00      24.68     100.00      12.40     140.00      17.80    1171.1379
4     230.00      31.10     190.00      25.87     110.00      13.27     150.00      19.79    1093.5004
4     240.00      34.34     200.00      27.92     120.00      14.58     160.00      21.15     996.1689
4     250.00      36.80     210.00      28.92     130.00      16.23     170.00      22.92     875.3809
4     260.00      42.77     220.00      29.96     140.00      17.80     180.00      24.68     730.5598
4     270.00      47.83     230.00      31.10     150.00      19.79     190.00      25.87     462.6043
4     280.00      50.82     240.00      34.34     160.00      21.15     200.00      27.92     288.2595
4     290.00      51.12     250.00      36.80     170.00      22.92     210.00      28.92     241.3422
4     300.00      54.08     260.00      42.77     180.00      24.68     220.00      29.96     195.5046
4     310.00      54.18     270.00      47.83     190.00      25.87     230.00      31.10     191.6238
4     320.00      56.31     280.00      50.82     200.00      27.92     240.00      34.34     158.8158
4     330.00      55.90     290.00      51.12     210.00      28.92     250.00      36.80     150.8402
4     340.00      61.89     300.00      54.08     220.00      29.96     260.00      42.77     136.7769
4     350.00      67.33     310.00      54.18     230.00      31.10     270.00      47.83     160.7784
4     360.00      70.82     320.00      56.31     240.00      34.34     280.00      50.82     173.7665
4     370.00      72.65     330.00      55.90     250.00      36.80     290.00      51.12     206.3747
4     380.00      80.50     340.00      61.89     260.00      42.77     300.00      54.08     261.1056
4     390.00      81.39     350.00      67.33     270.00      47.83     310.00      54.18     285.1342
4     400.00      81.39     360.00      70.82     280.00      50.82     320.00      56.31     376.4203
4      80.00      10.27      70.00       9.31       0.00       0.00      10.00       1.13    1199.1544
4      90.00      11.39      80.00      10.27      10.00       1.13      20.00       2.59    1261.1273
4     100.00      12.40      90.00      11.39      20.00       2.59      30.00       4.78    1407.5989
4     110.00      13.27     100.00      12.40      30.00       4.78      40.00       6.26    1376.2589
4     120.00      14.58     110.00      13.27      40.00       6.26      50.00       7.72    1206.0896
4     130.00      16.23     120.00      14.58      50.00       7.72      60.00       8.51    1096.7426
4     140.00      17.80     130.00      16.23      60.00       8.51      70.00       9.31     902.0037
4     150.00      19.79     140.00      17.80      70.00       9.31      80.00      10.27     972.9014
4     160.00      21.15     150.00      19.79      80.00      10.27      90.00      11.39     919.0660
4     170.00      22.92     160.00      21.15      90.00      11.39     100.00      12.40    1018.5245
4     180.00      24.68     170.00      22.92     100.00      12.40     110.00      13.27    1231.8140
4     190.00      25.87     180.00      24.68     110.00      13.27     120.00      14.58    1313.3466
4     200.00      27.92     190.00      25.87     120.00      14.58     130.00      16.23    1207.5885
4     210.00      28.92     200.00      27.92     130.00      16.23     140.00      17.80    1049.5742
4     220.00      29.96     210.00      28.92     140.00      17.80     150.00      19.79    1032.2902
4     230.00      31.10     220.00      29.96     150.00      19.79     160.00      21.15    1121.0736
4     240.00      34.34     230.00      31.10     160.00      21.15     170.00      22.92     671.6476
4     250.00      36.80     240.00      34.34     170.00      22.92     180.00      24.68     355.7869
4     260.00      42.77     250.00      36.80     180.00      24.68     190.00      25.87     272.8092
4     270.00      47.83     260.00      42.77     190.00      25.87     200.00      27.92     211.1382
4     280.00      50.82     270.00      47.83     200.00      27.92     210.00      28.92     234.2353
4     290.00      51.12     280.00      50.82     210.00      28.92     220.00      29.96     187.7910
4     300.00      54.08     290.00      51.12     220.00      29.96     230.00      31.10     267.4046
4     310.00      54.18     300.00      54.08     230.00      31.10     240.00      34.34     123.5276
4     320.00      56.31     310.00      54.18     240.00      34.34     250.00      36.80     131.2449
4     330.00      55.90     320.00      56.31     250.00      36.80     260.00      42.77     124.7458
4     340.00      61.89     330.00      55.90     260.00      42.77     270.00      47.83     140.4559
4     350.00      67.33     340.00      61.89     270.00      47.83     280.00      50.82     215.3162
4     360.00      70.82     350.00      67.33     280.00      50.82     290.00      51.12     262.7506
4     370.00      72.65     360.00      70.82     290.00      51.12     300.00      54.08     330.1332
4     380.00      80.50     370.00      72.65     300.00      54.08     310.00      54.18     262.4171
4     390.00      81.39     380.00      80.50     310.00      54.18     320.00      56.31     354.3766
4     400.00      81.39     390.00      81.39     320.00      56.31     330.00      55.90     753.9698
4     100.00      12.40      80.00      10.27       0.00       0.00      20.00       2.59    1377.3748
4     110.00      13.27      90.00      11.39      10.00       1.13      30.00       4.78    1627.6931
4     120.00      14.58     100.00      12.40      20.00       2.59      40.00       6.26    1516.2432
4     130.00      16.23     110.00      13.27      30.00       4.78      50.00       7.72    1222.2505
4     140.00      17.80     120.00      14.58      40.00       6.26      60.00       8.51    1087.0350
4     150.00      19.79     130.00      16.23      50.00       7.72      70.00       9.31    1033.8831
4     160.00      21.15     140.00      17.80      60.00       8.51      80.00      10.27    1062.9679
4     170.00      22.92     150.00      19.79      70.00       9.31      90.00      11.39    1042.2635
4     180.00      24.68     160.00      21.15      80.00      10.27     100.00      12.40    1088.2904
4     190.00      25.87     170.00      22.92      90.00      11.39     110.00      13.27    1280.0959
4     200.00      27.92     180.00      24.68     100.00      12.40     120.00      14.58    1288.4991
4     210.00      28.92     190.00      25.87     110.00      13.27     130.00      16.23    1120.1198
4     220.00      29.96     200.00      27.92     120.00      14.58     140.00      17.80     984.6933
4     230.00      31.10     210.00      28.92     130.00      16.23     150.00      19.79     979.5964
4     240.00      34.34     220.00      29.96     140.00      17.80     160.00      21.15     900.5149
4     250.00      36.80     230.00      31.10     150.00      19.79     170.00      22.92     522.4003
4     260.00      42.77     240.00      34.34     160.00      21.15     180.00      24.68     310.3051
4     270.00      47.83     250.00      36.80     170.00      22.92     190.00      25.87     247.9852
4     280.00      50.82     260.00      42.77     180.00      24.68     200.00      27.92     217.0564
4     290.00      51.12     270.00      47.83     190.00      25.87     210.00      28.92     240.7164
4     300.00      54.08     280.00      50.82     200.00      27.92     220.00      29.96     173.5622
4     310.00      54.18     290.00      51.12     210.00      28.92     230.00      31.10     192.7084
4     320.00      56.31     300.00      54.08     220.00      29.96     240.00      34.34     119.4432
4     330.00      55.90     310.00      54.18     230.00      31.10     250.00      36.80     101.8675
4     340.00      61.89     320.00      56.31     240.00      34.34     260.00      42.77     117.8568
4     350.00      67.33     330.00      55.90     250.00      36.80     270.00      47.83     149.4125
4     360.00      70.82     340.00      61.89     260.00      42.77     280.00      50.82     222.4142
4     370.00      72.65     350.00      67.33     270.00      47.83     290.00      51.12     255.3934
4     380.00      80.50     360.00      70.82     280.00      50.82     300.00      54.08     278.4649
4     390.00      81.39     370.00      72.65     290.00      51.12     310.00      54.18     225.0826
4     400.00      81.39     380.00      80.50     300.00      54.08     320.00      56.31     291.7365
4      90.00      11.39      80.00      10.27       0.00       0.00      10.00       1.13    1281.6989
4     100.00      12.40      90.00      11.39      10.00       1.13      20.00       2.59    1614.7766
4     110.00      13.27     100.00      12.40      20.00       2.59      30.00       4.78    1754.5559
4     120.00      14.58     110.00      13.27      30.00       4.78      40.00       6.26    1354.5747
4     130.00      16.23     120.00      14.58      40.00       6.26      50.00       7.72    1123.6619
4     140.00      17.80     130.00      16.23      50.00       7.72      60.00       8.51    1061.8314
4     150.00      19.79     140.00      17.80      60.00       8.51      70.00       9.31    1052.4137
4     160.00      21.15     150.00      19.79      70.00       9.31      80.00      10.27    1111.0171
4     170.00      22.92     160.00      21.15      80.00      10.27      90.00      11.39    1028.2643
4     180.00      24.68     170.00      22.92      90.00      11.39     100.00      12.40    1167.2407
4     190.00      25.87     180.00      24.68     100.00      12.40     110.00      13.27    1423.3401
4     200.00      27.92     190.00      25.87     110.00      13.27     120.00      14.58    1168.1433
4     210.00      28.92     200.00      27.92     120.00      14.58     130.00      16.23    1010.7523
4     220.00      29.96     210.00      28.92     130.00      16.23     140.00      17.80     941.6701
4     230.00      31.10     220.00      29.96     140.00      17.80     150.00      19.79    1024.8109
4     240.00      34.34     230.00      31.10     150.00      19.79     160.00      21.15     647.1251
4     250.00      36.80     240.00      34.34     160.00      21.15     170.00      22.92     330.3829
4     260.00      42.77     250.00      36.80     170.00      22.92     180.00      24.68     262.2381
4     270.00      47.83     260.00      42.77     180.00      24.68     190.00      25.87     246.0498
4     280.00      50.82     270.00      47.83     190.00      25.87     200.00      27.92     193.7672
4     290.00      51.12     280.00      50.82     200.00      27.92     210.00      28.92     214.7246
4     300.00      54.08     290.00      51.12     210.00      28.92     220.00      29.96     224.6665
4     310.00      54.18     300.00      54.08     220.00      29.96     230.00      31.10      99.6440
4     320.00      56.31     310.00      54.18     230.00      31.10     240.00      34.34      93.3840
4     330.00      55.90     320.00      56.31     240.00      34.34     250.00      36.80      52.1416
4     340.00      61.89     330.00      55.90     250.00      36.80     260.00      42.77     101.1314
4     350.00      67.33     340.00      61.89     260.00      42.77     270.00      47.83     204.7399
4     360.00      70.82     350.00      67.33     270.00      47.83     280.00      50.82     237.9050
4     370.00      72.65     360.00      70.82     280.00      50.82     290.00      51.12     282.8773
4     380.00      80.50     370.00      72.65     290.00      51.12     300.00      54.08     229.1110
4     390.00      81.39     380.00      80.50     300.00      54.08     310.00      54.18     205.2893
4     400.00      81.39     390.00      81.39     310.00      54.18     320.00      56.31     340.3866
4     150.00      19.79     100.00      12.40       0.00       0.00      50.00       7.72    1437.2504
4     160.00      21.15     110.00      13.27      10.00       1.13      60.00       8.51    1310.6663
4     170.00      22.92     120.00      14.58      20.00       2.59      70.00       9.31    1183.2809
4     180.00      24.68     130.00      16.23      30.00       4.78      80.00      10.27    1154.4316
4     190.00      25.87     140.00      17.80      40.00       6.26      90.00      11.39    1174.1011
4     200.00      27.92     150.00      19.79      50.00       7.72     100.00      12.40    1190.3306
4     210.00      28.92     160.00      21.15      60.00       8.51     110.00      13.27    1217.4457
4     220.00      29.96     170.00      22.92      70.00       9.31     120.00      14.58    1204.1096
4     230.00      31.10     180.00      24.68      80.00      10.27     130.00      16.23    1151.5571
4     240.00      34.34     190.00      25.87      90.00      11.39     140.00      17.80    1002.6645
4     250.00      36.80     200.00      27.92     100.00      12.40     150.00      19.79     878.9359
4     260.00      42.77     210.00      28.92     110.00      13.27     160.00      21.15     764.2873
4     270.00      47.83     220.00      29.96     120.00      14.58     170.00      22.92     622.1522
4     280.00      50.82     230.00      31.10     130.00      16.23     180.00      24.68     392.7107
4     290.00      51.12     240.00      34.34     140.00      17.80     190.00      25.87     250.3259
4     300.00      54.08     250.00      36.80     150.00      19.79     200.00      27.92     215.3939
4     310.00      54.18     260.00      42.77     160.00      21.15     210.00      28.92     199.2078
4     320.00      56.31     270.00      47.83     170.00      22.92     220.00      29.96     193.1787
4     330.00      55.90     280.00      50.82     180.00      24.68     230.00      31.10     184.9019
4     340.00      61.89     290.00      51.12     190.00      25.87     240.00      34.34     170.0183
4     350.00      67.33     300.00      54.08     200.00      27.92     250.00      36.80     170.4292
4     360.00      70.82     310.00      54.18     210.00      28.92     260.00      42.77     161.6519
4     370.00      72.65     320.00      56.31     220.00      29.96     270.00      47.83     175.0935
4     380.00      80.50     330.00      55.90     230.00      31.10     280.00      50.82     188.7783
4     390.00      81.39     340.00      61.89     240.00      34.34     290.00      51.12     214.3195
4     400.00      81.39     350.00      67.33     250.00      36.80     300.00      54.08     233.2369
4     120.00      14.58      90.00      11.39       0.00       0.00      30.00       4.78    1677.4099
4     130.00      16.23     100.00      12.40      10.00       1.13      40.00       6.26    1570.9038
4     140.00      17.80     110.00      13.27      20.00       2.59      50.00       7.72    1292.2185
4     150.00      19.79     120.00      14.58      30.00       4.78      60.00       8.51    1148.8767
4     160.00      21.15     130.00      16.23      40.00       6.26      70.00       9.31    1111.5432
4     170.00      22.92     140.00      17.80      50.00       7.72      80.00      10.27    1166.1692
4     180.00      24.68     150.00      19.79      60.00       8.51      90.00      11.39    1149.9895
4     190.00      25.87     160.00      21.15      70.00       9.31     100.00      12.40    1200.5374
4     200.00      27.92     170.00      22.92      80.00      10.27     110.00      13.27    1259.1624
4     210.00      28.92     180.00      24.68      90.00      11.39     120.00      14.58    1233.7246
4     220.00      29.96     190.00      25.87     100.00      12.40     130.00      16.23    1088.4691
4     230.00      31.10     200.00      27.92     110.00      13.27     140.00      17.80     954.4442
4     240.00      34.34     210.00      28.92     120.00      14.58     150.00      19.79     857.0697
4     250.00      36.80     220.00      29.96     130.00      16.23     160.00      21.15     729.2562
4     260.00      42.77     230.00      31.10     140.00      17.80     170.00      22.92     448.8290
4     270.00      47.83     240.00      34.34     150.00      19.79     180.00      24.68     269.1490
4     280.00      50.82     250.00      36.80     160.00      21.15     190.00      25.87     223.1300
4     290.00      51.12     260.00      42.77     170.00      22.92     200.00      27.92     186.7242
4     300.00      54.08     270.00      47.83     180.00      24.68     210.00      28.92     174.5243
4     310.00      54.18     280.00      50.82     190.00      25.87     220.00      29.96     189.1904
4     320.00      56.31     290.00      51.12     200.00      27.92     230.00      31.10     193.3173
4     330.00      55.90     300.00      54.08     210.00      28.92     240.00      34.34     126.8581
4     340.00      61.89     310.00      54.18     220.00      29.96     250.00      36.80     129.2728
4     350.00      67.33     320.00      56.31     230.00      31.10     260.00      42.77     136.3180
4     360.00      70.82     330.00      55.90     240.00      34.34     270.00      47.83     177.5526
4     370.00      72.65     340.00      61.89     250.00      36.80     280.00      50.82     205.6286
4     380.00      80.50     350.00      67.33     260.00      42.77     290.00      51.12     227.0519
4     390.00      81.39     360.00      70.82     270.00      47.83     300.00      54.08     224.6330
4     400.00      81.39     370.00      72.65     280.00      50.82     310.00      54.18     200.6962
4     100.00      12.40      90.00      11.39       0.00       0.00      10.00       1.13    1417.9082
4     110.00      13.27     100.00      12.40      10.00       1.13      20.00       2.59    1940.7616
4     120.00      14.58     110.00      13.27      20.00       2.59      30.00       4.78    1707.2360
4     130.00      16.23     120.00      14.58      30.00       4.78      40.00       6.26    1224.6519
4     140.00      17.80     130.00      16.23      40.00       6.26      50.00       7.72    1075.2820
4     150.00      19.79     140.00      17.80      50.00       7.72      60.00       8.51    1240.1462
4     160.00      21.15     150.00      19.79      60.00       8.51      70.00       9.31    1183.7017
4     170.00      22.92     160.00      21.15      70.00       9.31      80.00      10.27    1268.0293
4     180.00      24.68     170.00      22.92      80.00      10.27      90.00      11.39    1185.9591
4     190.00      25.87     180.00      24.68      90.00      11.39     100.00      12.40    1329.3506
4     200.00      27.92     190.00      25.87     100.00      12.40     110.00      13.27    1200.0193
4     210.00      28.92     200.00      27.92     110.00      13.27     120.00      14.58    1006.1953
4     220.00      29.96     210.00      28.92     120.00      14.58     130.00      16.23     895.3419
4     230.00      31.10     220.00      29.96     130.00      16.23     140.00      17.80     865.2195
4     240.00      34.34     230.00      31.10     140.00      17.80     150.00      19.79     591.0897
4     250.00      36.80     240.00      34.34     150.00      19.79     160.00      21.15     268.9658
4     260.00      42.77     250.00      36.80     160.00      21.15     170.00      22.92     261.3860
4     270.00      47.83     260.00      42.77     170.00      22.92     180.00      24.68     175.4486
4     280.00      50.82     270.00      47.83     180.00      24.68     190.00      25.87     207.3511
4     290.00      51.12     280.00      50.82     190.00      25.87     200.00      27.92     375.2863
4     310.00      54.18     300.00      54.08     210.00      28.92     220.00      29.96     140.3798
4     320.00      56.31     310.00      54.18     220.00      29.96     230.00      31.10     135.6243
4     330.00      55.90     320.00      56.31     230.00      31.10     240.00      34.34      98.9009
4     340.00      61.89     330.00      55.90     240.00      34.34     250.00      36.80     214.0229
4     350.00      67.33     340.00      61.89     250.00      36.80     260.00      42.77     133.8055
4     360.00      70.82     350.00      67.33     260.00      42.77     270.00      47.83     239.6714
4     370.00      72.65     360.00      70.82     270.00      47.83     280.00      50.82     241.6460
4     380.00      80.50     370.00      72.65     280.00      50.82     290.00      51.12     249.7053
4     390.00      81.39     380.00      80.50     290.00      51.12     300.00      54.08     163.3759
4     400.00      81.39     390.00      81.39     300.00      54.08     310.00      54.18     173.9862
4     120.00      14.58     100.00      12.40       0.00       0.00      20.00       2.59    1936.9276
4     130.00      16.23     110.00      13.27      10.00       1.13      30.00       4.78    1711.3286
4     140.00      17.80     120.00      14.58      20.00       2.59      40.00       6.26    1342.1185
4     150.00      19.79     130.00      16.23      30.00       4.78      50.00       7.72    1186.8661
4     160.00      21.15     140.00      17.80      40.00       6.26      60.00       8.51    1296.0427
4     170.00      22.92     150.00      19.79      50.00       7.72      70.00       9.31    1330.0925
4     180.00      24.68     160.00      21.15      60.00       8.51      80.00      10.27    1365.1829
4     190.00      25.87     170.00      22.92      70.00       9.31      90.00      11.39    1367.0829
4     200.00      27.92     180.00      24.68      80.00      10.27     100.00      12.40    1271.5232
4     210.00      28.92     190.00      25.87      90.00      11.39     110.00      13.27    1154.8595
4     220.00      29.96     200.00      27.92     100.00      12.40     120.00      14.58    1018.9316
4     230.00      31.10     210.00      28.92     110.00      13.27     130.00      16.23     881.3073
4     240.00      34.34     220.00      29.96     120.00      14.58     140.00      17.80     692.5214
4     250.00      36.80     230.00      31.10     130.00      16.23     150.00      19.79     446.4600
4     260.00      42.77     240.00      34.34     140.00      17.80     160.00      21.15     272.0096
4     270.00      47.83     250.00      36.80     150.00      19.79     170.00      22.92     204.0057
4     280.00      50.82     260.00      42.77     160.00      21.15     180.00      24.68     154.0544
4     290.00      51.12     270.00      47.83     170.00      22.92     190.00      25.87      81.3034
4     300.00      54.08     280.00      50.82     180.00      24.68     200.00      27.92     146.1987
4     310.00      54.18     290.00      51.12     190.00      25.87     210.00      28.92     180.6903
4     320.00      56.31     300.00      54.08     200.00      27.92     220.00      29.96     230.5934
4     330.00      55.90     310.00      54.18     210.00      28.92     230.00      31.10     153.1308
4     340.00      61.89     320.00      56.31     220.00      29.96     240.00      34.34     149.3624
4     350.00      67.33     330.00      55.90     230.00      31.10     250.00      36.80     206.4147
4     360.00      70.82     340.00      61.89     240.00      34.34     260.00      42.77     198.0787
4     370.00      72.65     350.00      67.33     250.00      36.80     270.00      47.83     210.8021
4     380.00      80.50     360.00      70.82     260.00      42.77     280.00      50.82     152.1416
4     390.00      81.39     370.00      72.65     270.00      47.83     290.00      51.12     143.1096
4     400.00      81.39     380.00      80.50     280.00      50.82     300.00      54.08     127.9802
4     160.00      21.15     120.00      14.58       0.00       0.00      40.00       6.26    1530.3186
4     170.00      22.92     130.00      16.23      10.00       1.13      50.00       7.72    1472.3403
4     180.00      24.68     140.00      17.80      20.00       2.59      60.00       8.51    1513.5227
4     190.00      25.87     150.00      19.79      30.00       4.78      70.00       9.31    1522.2418
4     200.00      27.92     160.00      21.15      40.00       6.26      80.00      10.27    1520.0100
4     210.00      28.92     170.00      22.92      50.00       7.72      90.00      11.39    1416.7025
4     220.00      29.96     180.00      24.68      60.00       8.51     100.00      12.40    1253.2994
4     230.00      31.10     190.00      25.87      70.00       9.31     110.00      13.27    1093.0782
4     240.00      34.34     200.00      27.92      80.00      10.27     120.00      14.58     901.6633
4     250.00      36.80     210.00      28.92      90.00      11.39     130.00      16.23     716.2318
4     260.00      42.77     220.00      29.96     100.00      12.40     140.00      17.80     532.7186
4     270.00      47.83     230.00      31.10     110.00      13.27     150.00      19.79     333.3205
4     280.00      50.82     240.00      34.34     120.00      14.58     160.00      21.15     222.5843
4     290.00      51.12     250.00      36.80     130.00      16.23     170.00      22.92     190.5123
4     300.00      54.08     260.00      42.77     140.00      17.80     180.00      24.68     174.5725
4     310.00      54.18     270.00      47.83     150.00      19.79     190.00      25.87     175.8872
4     320.00      56.31     280.00      50.82     160.00      21.15     200.00      27.92     174.5460
4     330.00      55.90     290.00      51.12     170.00      22.92     210.00      28.92     192.2395
4     340.00      61.89     300.00      54.08     180.00      24.68     220.00      29.96     218.0797
4     350.00      67.33     310.00      54.18     190.00      25.87     230.00      31.10     238.2484
4     360.00      70.82     320.00      56.31     200.00      27.92     240.00      34.34     252.9276
4     370.00      72.65     330.00      55.90     210.00      28.92     250.00      36.80     287.0667
4     380.00      80.50     340.00      61.89     220.00      29.96     260.00      42.77     246.0817
4     390.00      81.39     350.00      67.33     230.00      31.10     270.00      47.83     204.1003
4     400.00      81.39     360.00      70.82     240.00      34.34     280.00      50.82     190.3151
4     150.00      19.79     120.00      14.58       0.00       0.00      30.00       4.78    1622.1268
4     160.00      21.15     130.00      16.23      10.00       1.13      40.00       6.26    1538.9211
4     170.00      22.92     140.00      17.80      20.00       2.59      50.00       7.72    1503.5272
4     180.00      24.68     150.00      19.79      30.00       4.78      60.00       8.51    1541.4036
4     190.00      25.87     160.00      21.15      40.00       6.26      70.00       9.31    1599.1285
4     200.00      27.92     170.00      22.92      50.00       7.72      80.00      10.27    1583.7528
4     210.00      28.92     180.00      24.68      60.00       8.51      90.00      11.39    1357.2245
4     220.00      29.96     190.00      25.87      70.00       9.31     100.00      12.40    1114.9418
4     230.00      31.10     200.00      27.92      80.00      10.27     110.00      13.27     995.1887
4     240.00      34.34     210.00      28.92      90.00      11.39     120.00      14.58     827.4088
4     250.00      36.80     220.00      29.96     100.00      12.40     130.00      16.23     602.1812
4     260.00      42.77     230.00      31.10     110.00      13.27     140.00      17.80     346.9606
4     270.00      47.83     240.00      34.34     120.00      14.58     150.00      19.79     223.8717
4     280.00      50.82     250.00      36.80     130.00      16.23     160.00      21.15     188.3229
4     290.00      51.12     260.00      42.77     140.00      17.80     170.00      22.92     172.5905
4     300.00      54.08     270.00      47.83     150.00      19.79     180.00      24.68     189.2039
4     310.00      54.18     280.00      50.82     160.00      21.15     190.00      25.87     172.2631
4     320.00      56.31     290.00      51.12     170.00      22.92     200.00      27.92     183.7046
4     330.00      55.90     300.00      54.08     180.00      24.68     210.00      28.92     232.5994
4     340.00      61.89     310.00      54.18     190.00      25.87     220.00      29.96     220.2050
4     350.00      67.33     320.00      56.31     200.00      27.92     230.00      31.10     270.9128
4     360.00      70.82     330.00      55.90     210.00      28.92     240.00      34.34     296.0413
4     370.00      72.65     340.00      61.89     220.00      29.96     250.00      36.80     300.3984
4     380.00      80.50     350.00      67.33     230.00      31.10     260.00      42.77     222.5648
4     390.00      81.39     360.00      70.82     240.00      34.34     270.00      47.83     186.5818
4     400.00      81.39     370.00      72.65     250.00      36.80     280.00      50.82     172.3479
4     140.00      17.80     120.00      14.58       0.00       0.00      20.00       2.59    1622.3265
4     150.00      19.79     130.00      16.23      10.00       1.13      30.00       4.78    1634.5317
4     160.00      21.15     140.00      17.80      20.00       2.59      40.00       6.26    1560.5359
4     170.00      22.92     150.00      19.79      30.00       4.78      50.00       7.72    1480.1406
4     180.00      24.68     160.00      21.15      40.00       6.26      60.00       8.51    1602.6533
4     190.00      25.87     170.00      22.92      50.00       7.72      70.00       9.31    1691.6910
4     200.00      27.92     180.00      24.68      60.00       8.51      80.00      10.27    1555.6143
4     210.00      28.92     190.00      25.87      70.00       9.31      90.00      11.39    1216.7338
4     220.00      29.96     200.00      27.92      80.00      10.27     100.00      12.40     968.3912
4     230.00      31.10     210.00      28.92      90.00      11.39     110.00      13.27     957.4594
4     240.00      34.34     220.00      29.96     100.00      12.40     120.00      14.58     753.5342
4     250.00      36.80     230.00      31.10     110.00      13.27     130.00      16.23     392.3546
4     260.00      42.77     240.00      34.34     120.00      14.58     140.00      17.80     245.0043
4     270.00      47.83     250.00      36.80     130.00      16.23     150.00      19.79     190.2595
4     280.00      50.82     260.00      42.77     140.00      17.80     160.00      21.15     176.6505
4     290.00      51.12     270.00      47.83     150.00      19.79     170.00      22.92     203.5795
4     300.00      54.08     280.00      50.82     160.00      21.15     180.00      24.68     225.4365
4     310.00      54.18     290.00      51.12     170.00      22.92     190.00      25.87     181.7120
4     320.00      56.31     300.00      54.08     180.00      24.68     200.00      27.92     175.6042
4     330.00      55.90     310.00      54.18     190.00      25.87     210.00      28.92     222.9731
4     340.00      61.89     320.00      56.31     200.00      27.92     220.00      29.96     229.8436
4     350.00      67.33     330.00      55.90     210.00      28.92     230.00      31.10     337.0042
4     360.00      70.82     340.00      61.89     220.00      29.96     240.00      34.34     321.6826
4     370.00      72.65     350.00      67.33     230.00      31.10     250.00      36.80     268.5871
4     380.00      80.50     360.00      70.82     240.00      34.34     260.00      42.77     213.9189
4     390.00      81.39     370.00      72.65     250.00      36.80     270.00      47.83     144.0900
4     400.00      81.39     380.00      80.50     260.00      42.77     280.00      50.82     246.3937
4     160.00      21.15     140.00      17.80       0.00       0.00      20.00       2.59    1857.8820
4     170.00      22.92     150.00      19.79      10.00       1.13      30.00       4.78    1988.0427
4     180.00      24.68     160.00      21.15      20.00       2.59      40.00       6.26    1886.8933
4     190.00      25.87     170.00      22.92      30.00       4.78      50.00       7.72    1812.5070
4     200.00      27.92     180.00      24.68      40.00       6.26      60.00       8.51    1750.8761
4     210.00      28.92     190.00      25.87      50.00       7.72      70.00       9.31    1426.1010
4     220.00      29.96     200.00      27.92      60.00       8.51      80.00      10.27    1179.7445
4     230.00      31.10     210.00      28.92      70.00       9.31      90.00      11.39     975.6006
4     240.00      34.34     220.00      29.96      80.00      10.27     100.00      12.40     714.5040
4     250.00      36.80     230.00      31.10      90.00      11.39     110.00      13.27     393.8119
4     260.00      42.77     240.00      34.34     100.00      12.40     120.00      14.58     247.0426
4     270.00      47.83     250.00      36.80     110.00      13.27     130.00      16.23     163.6389
4     280.00      50.82     260.00      42.77     120.00      14.58     140.00      17.80     143.7438
4     290.00      51.12     270.00      47.83     130.00      16.23     150.00      19.79     137.3508
4     300.00      54.08     280.00      50.82     140.00      17.80     160.00      21.15     156.6702
4     310.00      54.18     290.00      51.12     150.00      19.79     170.00      22.92     167.9771
4     320.00      56.31     300.00      54.08     160.00      21.15     180.00      24.68     157.6208
4     330.00      55.90     310.00      54.18     170.00      22.92     190.00      25.87     155.3313
4     340.00      61.89     320.00      56.31     180.00      24.68     200.00      27.92     234.5235
4     350.00      67.33     330.00      55.90     190.00      25.87     210.00      28.92     365.6407
4     360.00      70.82     340.00      61.89     200.00      27.92     220.00      29.96     469.6549
4     370.00      72.65     350.00      67.33     210.00      28.92     230.00      31.10     456.5172
4     380.00      80.50     360.00      70.82     220.00      29.96     240.00      34.34     323.2678
4     390.00      81.39     370.00      72.65     230.00      31.10     250.00      36.80     177.0037
4     400.00      81.39     380.00      80.50     240.00      34.34     260.00      42.77     173.5023
4     200.00      27.92     150.00      19.79       0.00       0.00      50.00       7.72    1850.4270
4     210.00      28.92     160.00      21.15      10.00       1.13      60.00       8.51    1797.9686
4     220.00      29.96     170.00      22.92      20.00       2.59      70.00       9.31    1637.7662
4     230.00      31.10     180.00      24.68      30.00       4.78      80.00      10.27    1437.0751
4     240.00      34.34     190.00      25.87      40.00       6.26      90.00      11.39    1121.0698
4     250.00      36.80     200.00      27.92      50.00       7.72     100.00      12.40     877.2923
4     260.00      42.77     210.00      28.92      60.00       8.51     110.00      13.27     678.5727
4     270.00      47.83     220.00      29.96      70.00       9.31     120.00      14.58     492.1016
4     280.00      50.82     230.00      31.10      80.00      10.27     130.00      16.23     282.6031
4     290.00      51.12     240.00      34.34      90.00      11.39     140.00      17.80     190.8940
4     300.00      54.08     250.00      36.80     100.00      12.40     150.00      19.79     174.3927
4     310.00      54.18     260.00      42.77     110.00      13.27     160.00      21.15     140.4416
4     320.00      56.31     270.00      47.83     120.00      14.58     170.00      22.92     144.2006
4     330.00      55.90     280.00      50.82     130.00      16.23     180.00      24.68     148.7660
4     340.00      61.89     290.00      51.12     140.00      17.80     190.00      25.87     179.3973
4     350.00      67.33     300.00      54.08     150.00      19.79     200.00      27.92     220.5662
4     360.00      70.82     310.00      54.18     160.00      21.15     210.00      28.92     297.0882
4     370.00      72.65     320.00      56.31     170.00      22.92     220.00      29.96     350.6805
4     380.00      80.50     330.00      55.90     180.00      24.68     230.00      31.10     398.6191
4     390.00      81.39     340.00      61.89     190.00      25.87     240.00      34.34     363.1883
4     400.00      81.39     350.00      67.33     200.00      27.92     250.00      36.80     320.9246
4     180.00      24.68     150.00      19.79       0.00       0.00      30.00       4.78    2061.2217
4     190.00      25.87     160.00      21.15      10.00       1.13      40.00       6.26    2068.4937
4     200.00      27.92     170.00      22.92      20.00       2.59      50.00       7.72    1889.7095
4     210.00      28.92     180.00      24.68      30.00       4.78      60.00       8.51    1681.1014
4     220.00      29.96     190.00      25.87      40.00       6.26      70.00       9.31    1362.5515
4     230.00      31.10     200.00      27.92      50.00       7.72      80.00      10.27    1163.5907
4     240.00      34.34     210.00      28.92      60.00       8.51      90.00      11.39     858.9606
4     250.00      36.80     220.00      29.96      70.00       9.31     100.00      12.40     612.9955
4     260.00      42.77     230.00      31.10      80.00      10.27     110.00      13.27     340.2205
4     270.00      47.83     240.00      34.34      90.00      11.39     120.00      14.58     212.3391
4     280.00      50.82     250.00      36.80     100.00      12.40     130.00      16.23     161.1513
4     290.00      51.12     260.00      42.77     110.00      13.27     140.00      17.80     133.5046
4     300.00      54.08     270.00      47.83     120.00      14.58     150.00      19.79     130.0959
4     310.00      54.18     280.00      50.82     130.00      16.23     160.00      21.15     136.4655
4     320.00      56.31     290.00      51.12     140.00      17.80     170.00      22.92     149.3032
4     330.00      55.90     300.00      54.08     150.00      19.79     180.00      24.68     155.1503
4     340.00      61.89     310.00      54.18     160.00      21.15     190.00      25.87     184.2944
4     350.00      67.33     320.00      56.31     170.00      22.92     200.00      27.92     290.9440
4     360.00      70.82     330.00      55.90     180.00      24.68     210.00      28.92     414.6273
4     370.00      72.65     340.00      61.89     190.00      25.87     220.00      29.96     478.1179
4     380.00      80.50     350.00      67.33     200.00      27.92     230.00      31.10     434.8072
4     390.00      81.39     360.00      70.82     210.00      28.92     240.00      34.34     318.5839
4     400.00      81.39     370.00      72.65     220.00      29.96     250.00      36.80     221.0114
4     200.00      27.92     160.00      21.15       0.00       0.00      40.00       6.26    2059.7891
4     210.00      28.92     170.00      22.92      10.00       1.13      50.00       7.72    1895.3455
4     220.00      29.96     180.00      24.68      20.00       2.59      60.00       8.51    1659.5828
4     230.00      31.10     190.00      25.87      30.00       4.78      70.00       9.31    1336.3582
4     240.00      34.34     200.00      27.92      40.00       6.26      80.00      10.27    1062.6173
4     250.00      36.80     210.00      28.92      50.00       7.72      90.00      11.39     772.7263
4     260.00      42.77     220.00      29.96      60.00       8.51     100.00      12.40     540.8654
4     270.00      47.83     230.00      31.10      70.00       9.31     110.00      13.27     308.8477
4     280.00      50.82     240.00      34.34      80.00      10.27     120.00      14.58     200.9295
4     290.00      51.12     250.00      36.80      90.00      11.39     130.00      16.23     153.2461
4     300.00      54.08     260.00      42.77     100.00      12.40     140.00      17.80     158.4396
4     310.00      54.18     270.00      47.83     110.00      13.27     150.00      19.79     126.6826
4     320.00      56.31     280.00      50.82     120.00      14.58     160.00      21.15     130.6025
4     330.00      55.90     290.00      51.12     130.00      16.23     170.00      22.92     145.3821
4     340.00      61.89     300.00      54.08     140.00      17.80     180.00      24.68     174.6110
4     350.00      67.33     310.00      54.18     150.00      19.79     190.00      25.87     244.4938
4     360.00      70.82     320.00      56.31     160.00      21.15     200.00      27.92     331.0660
4     370.00      72.65     330.00      55.90     170.00      22.92     210.00      28.92     434.2297
4     380.00      80.50     340.00      61.89     180.00      24.68     220.00      29.96     466.0259
4     390.00      81.39     350.00      67.33     190.00      25.87     230.00      31.10     420.5072
4     400.00      81.39     360.00      70.82     200.00      27.92     240.00      34.34     333.0943
4     210.00      28.92     180.00      24.68       0.00       0.00      30.00       4.78    2115.9070
4     220.00      29.96     190.00      25.87      10.00       1.13      40.00       6.26    1720.4384
4     230.00      31.10     200.00      27.92      20.00       2.59      50.00       7.72    1320.3920
4     240.00      34.34     210.00      28.92      30.00       4.78      60.00       8.51     984.7566
4     250.00      36.80     220.00      29.96      40.00       6.26      70.00       9.31     696.6776
4     260.00      42.77     230.00      31.10      50.00       7.72      80.00      10.27     385.9783
4     270.00      47.83     240.00      34.34      60.00       8.51      90.00      11.39     222.8939
4     280.00      50.82     250.00      36.80      70.00       9.31     100.00      12.40     180.0673
4     290.00      51.12     260.00      42.77      80.00      10.27     110.00      13.27     130.0222
4     300.00      54.08     270.00      47.83      90.00      11.39     120.00      14.58     130.6702
4     310.00      54.18     280.00      50.82     100.00      12.40     130.00      16.23     122.9772
4     320.00      56.31     290.00      51.12     110.00      13.27     140.00      17.80     122.5901
4     330.00      55.90     300.00      54.08     120.00      14.58     150.00      19.79     118.8915
4     340.00      61.89     310.00      54.18     130.00      16.23     160.00      21.15     162.9955
4     350.00      67.33     320.00      56.31     140.00      17.80     170.00      22.92     268.7323
4     360.00      70.82     330.00      55.90     150.00      19.79     180.00      24.68     409.0439
4     370.00      72.65     340.00      61.89     160.00      21.15     190.00      25.87     497.9636
4     380.00      80.50     350.00      67.33     170.00      22.92     200.00      27.92     459.1059
4     390.00      81.39     360.00      70.82     180.00      24.68     210.00      28.92     385.1371
4     400.00      81.39     370.00      72.65     190.00      25.87     220.00      29.96     339.4690
4     250.00      36.80     200.00      27.92       0.00       0.00      50.00       7.72    1115.4319
4     260.00      42.77     210.00      28.92      10.00       1.13      60.00       8.51     830.5313
4     270.00      47.83     220.00      29.96      20.00       2.59      70.00       9.31     568.1246
4     280.00      50.82     230.00      31.10      30.00       4.78      80.00      10.27     322.8891
4     290.00      51.12     240.00      34.34      40.00       6.26      90.00      11.39     208.8088
4     300.00      54.08     250.00      36.80      50.00       7.72     100.00      12.40     130.0318
4     310.00      54.18     260.00      42.77      60.00       8.51     110.00      13.27     150.5929
4     320.00      56.31     270.00      47.83      70.00       9.31     120.00      14.58     132.9478
4     330.00      55.90     280.00      50.82      80.00      10.27     130.00      16.23     133.8705
4     340.00      61.89     290.00      51.12      90.00      11.39     140.00      17.80     146.8107
4     350.00      67.33     300.00      54.08     100.00      12.40     150.00      19.79     187.8726
4     360.00      70.82     310.00      54.18     110.00      13.27     160.00      21.15     257.2738
4     370.00      72.65     320.00      56.31     120.00      14.58     170.00      22.92     322.3849
4     380.00      80.50     330.00      55.90     130.00      16.23     180.00      24.68     400.1921
4     390.00      81.39     340.00      61.89     140.00      17.80     190.00      25.87     437.9119
4     400.00      81.39     350.00      67.33     150.00      19.79     200.00      27.92     430.1931
4     240.00      34.34     200.00      27.92       0.00       0.00      40.00       6.26    1306.9332
4     250.00      36.80     210.00      28.92      10.00       1.13      50.00       7.72     962.0210
4     260.00      42.77     220.00      29.96      20.00       2.59      60.00       8.51     637.1497
4     270.00      47.83     230.00      31.10      30.00       4.78      70.00       9.31     348.4634
4     280.00      50.82     240.00      34.34      40.00       6.26      80.00      10.27     219.0891
4     290.00      51.12     250.00      36.80      50.00       7.72      90.00      11.39     167.3433
4     300.00      54.08     260.00      42.77      60.00       8.51     100.00      12.40      95.1328
4     310.00      54.18     270.00      47.83      70.00       9.31     110.00      13.27     140.1679
4     320.00      56.31     280.00      50.82      80.00      10.27     120.00      14.58     135.2576
4     330.00      55.90     290.00      51.12      90.00      11.39     130.00      16.23     131.5025
4     340.00      61.89     300.00      54.08     100.00      12.40     140.00      17.80     145.3167
4     350.00      67.33     310.00      54.18     110.00      13.27     150.00      19.79     207.6935
4     360.00      70.82     320.00      56.31     120.00      14.58     160.00      21.15     294.2717
4     370.00      72.65     330.00      55.90     130.00      16.23     170.00      22.92     393.0796
4     380.00      80.50     340.00      61.89     140.00      17.80     180.00      24.68     457.6190
4     390.00      81.39     350.00      67.33     150.00      19.79     190.00      25.87     441.4144
4     400.00      81.39     360.00      70.82     160.00      21.15     200.00      27.92     393.3721
4     280.00      50.82     240.00      34.34       0.00       0.00      40.00       6.26     268.5093
4     290.00      51.12     250.00      36.80      10.00       1.13      50.00       7.72     208.5460
4     300.00      54.08     260.00      42.77      20.00       2.59      60.00       8.51     186.8806
4     310.00      54.18     270.00      47.83      30.00       4.78      70.00       9.31     154.6425
4     320.00      56.31     280.00      50.82      40.00       6.26      80.00      10.27     151.1021
4     330.00      55.90     290.00      51.12      50.00       7.72      90.00      11.39     141.9957
4     340.00      61.89     300.00      54.08      60.00       8.51     100.00      12.40     187.3509
4     350.00      67.33     310.00      54.18      70.00       9.31     110.00      13.27     255.6540
4     360.00      70.82     320.00      56.31      80.00      10.27     120.00      14.58     363.8172
4     370.00      72.65     330.00      55.90      90.00      11.39     130.00      16.23     427.1411
4     380.00      80.50     340.00      61.89     100.00      12.40     140.00      17.80     441.2805
4     390.00      81.39     350.00      67.33     110.00      13.27     150.00      19.79     398.7013
4     400.00      81.39     360.00      70.82     120.00      14.58     160.00      21.15     361.1650
4     300.00      54.08     250.00      36.80       0.00       0.00      50.00       7.72     209.6617
4     310.00      54.18     260.00      42.77      10.00       1.13      60.00       8.51     173.3448
4     320.00      56.31     270.00      47.83      20.00       2.59      70.00       9.31     161.6478
4     330.00      55.90     280.00      50.82      30.00       4.78      80.00      10.27     167.4146
4     340.00      61.89     290.00      51.12      40.00       6.26      90.00      11.39     195.2475
4     350.00      67.33     300.00      54.08      50.00       7.72     100.00      12.40     255.1099
4     360.00      70.82     310.00      54.18      60.00       8.51     110.00      13.27     334.5117
4     370.00      72.65     320.00      56.31      70.00       9.31     120.00      14.58     408.0382
4     380.00      80.50     330.00      55.90      80.00      10.27     130.00      16.23     427.7115
4     390.00      81.39     340.00      61.89      90.00      11.39     140.00      17.80     436.3955
4     400.00      81.39     350.00      67.33     100.00      12.40     150.00      19.79     413.3820
0
0
0
0
0
0
0
