Project10 Dipole-Dipole_1
    3.00000
11
3
Type of resistivity data (1=resistance,0=resistivity)
0
1216
2
0
4      9.000     38.320      6.000     38.230      0.000     38.050      3.000     38.140     75.4608 
4     12.000     38.410      9.000     38.320      3.000     38.140      6.000     38.230     56.5894 
4     15.000     38.500     12.000     38.410      6.000     38.230      9.000     38.320     52.9061 
4     18.000     38.590     15.000     38.500      9.000     38.320     12.000     38.410     38.2515 
4     21.000     38.680     18.000     38.590     12.000     38.410     15.000     38.500     37.1335 
4     24.000     38.770     21.000     38.680     15.000     38.500     18.000     38.590     37.1828 
4     27.000     38.870     24.000     38.770     18.000     38.590     21.000     38.680     32.8139 
4     30.000     38.960     27.000     38.870     21.000     38.680     24.000     38.770     68.6851 
4     33.000     37.920     30.000     38.960     24.000     38.770     27.000     38.870     56.7709 
4     36.000     36.830     33.000     37.920     27.000     38.870     30.000     38.960     92.3406 
4     39.000     35.740     36.000     36.830     30.000     38.960     33.000     37.920     46.8428 
4     42.000     34.650     39.000     35.740     33.000     37.920     36.000     36.830     48.1867 
4     45.000     33.560     42.000     34.650     36.000     36.830     39.000     35.740     27.4365 
4     48.000     33.480     45.000     33.560     39.000     35.740     42.000     34.650     27.4335 
4     51.000     33.440     48.000     33.480     42.000     34.650     45.000     33.560     34.6660 
4     54.000     33.390     51.000     33.440     45.000     33.560     48.000     33.480    103.7691 
4     57.000     33.340     54.000     33.390     48.000     33.480     51.000     33.440    223.6127 
4     60.000     33.290     57.000     33.340     51.000     33.440     54.000     33.390    203.9416 
4     63.000     32.830     60.000     33.290     54.000     33.390     57.000     33.340    218.1795 
4     66.000     31.550     63.000     32.830     57.000     33.340     60.000     33.290    459.8984 
4     69.000     30.260     66.000     31.550     60.000     33.290     63.000     32.830    910.5806 
4     72.000     28.980     69.000     30.260     63.000     32.830     66.000     31.550    748.2520 
4     75.000     28.190     72.000     28.980     66.000     31.550     69.000     30.260   1548.7153 
4     78.000     27.560     75.000     28.190     69.000     30.260     72.000     28.980   1357.0775 
4     81.000     26.940     78.000     27.560     72.000     28.980     75.000     28.190   1902.9644 
4     84.000     26.310     81.000     26.940     75.000     28.190     78.000     27.560    813.7354 
4     87.000     25.690     84.000     26.310     78.000     27.560     81.000     26.940   1479.7712 
4     90.000     24.880     87.000     25.690     81.000     26.940     84.000     26.310   1627.1370 
4     93.000     23.950     90.000     24.880     84.000     26.310     87.000     25.690   1818.0566 
4     96.000     23.020     93.000     23.950     87.000     25.690     90.000     24.880   1701.1140 
4     99.000     22.090     96.000     23.020     90.000     24.880     93.000     23.950   1678.1779 
4    102.000     21.160     99.000     22.090     93.000     23.950     96.000     23.020   1797.8801 
4    105.000     20.420    102.000     21.160     96.000     23.020     99.000     22.090   2163.9536 
4    108.000     19.720    105.000     20.420     99.000     22.090    102.000     21.160   2325.9429 
4    111.000     19.210    108.000     19.720    102.000     21.160    105.000     20.420   1756.1812 
4    114.000     18.730    111.000     19.210    105.000     20.420    108.000     19.720   3443.0391 
4    117.000     18.240    114.000     18.730    108.000     19.720    111.000     19.210   1432.1628 
4    120.000     17.900    117.000     18.240    111.000     19.210    114.000     18.730   2689.0474 
4    123.000     17.570    120.000     17.900    114.000     18.730    117.000     18.240   2182.6316 
4    126.000     17.230    123.000     17.570    117.000     18.240    120.000     17.900   1683.2898 
4    129.000     16.900    126.000     17.230    120.000     17.900    123.000     17.570   1355.1493 
4    132.000     16.570    129.000     16.900    123.000     17.570    126.000     17.230   1009.1449 
4    135.000     16.370    132.000     16.570    126.000     17.230    129.000     16.900   1141.5593 
4    138.000     16.190    135.000     16.370    129.000     16.900    132.000     16.570   1437.5859 
4    141.000     16.000    138.000     16.190    132.000     16.570    135.000     16.370    969.2272 
4    144.000     15.810    141.000     16.000    135.000     16.370    138.000     16.190    661.9531 
4    147.000     15.620    144.000     15.810    138.000     16.190    141.000     16.000    686.4952 
4    150.000     15.430    147.000     15.620    141.000     16.000    144.000     15.810    184.9984 
4    153.000     15.260    150.000     15.430    144.000     15.810    147.000     15.620    145.2187 
4    156.000     15.100    153.000     15.260    147.000     15.620    150.000     15.430    259.6138 
4    162.000     14.760    159.000     14.930    153.000     15.260    156.000     15.100    596.5998 
4    165.000     14.200    162.000     14.760    156.000     15.100    159.000     14.930    489.1839 
4    168.000     13.620    165.000     14.200    159.000     14.930    162.000     14.760    324.3202 
4    171.000     13.050    168.000     13.620    162.000     14.760    165.000     14.200    212.7434 
4    174.000     12.470    171.000     13.050    165.000     14.200    168.000     13.620     93.2606 
4    177.000     11.860    174.000     12.470    168.000     13.620    171.000     13.050     50.3629 
4    180.000     10.770    177.000     11.860    171.000     13.050    174.000     12.470     67.2731 
4    183.000      9.680    180.000     10.770    174.000     12.470    177.000     11.860    154.0821 
4    186.000      8.590    183.000      9.680    177.000     11.860    180.000     10.770   1074.1194 
4    189.000      7.500    186.000      8.590    180.000     10.770    183.000      9.680   3015.8762 
4    192.000      6.410    189.000      7.500    183.000      9.680    186.000      8.590   4906.2134 
4    195.000      5.410    192.000      6.410    186.000      8.590    189.000      7.500   2202.9326 
4    198.000      4.400    195.000      5.410    189.000      7.500    192.000      6.410   1603.2791 
4    201.000      3.440    198.000      4.400    192.000      6.410    195.000      5.410    440.5288 
4    204.000      2.960    201.000      3.440    195.000      5.410    198.000      4.400    216.4140 
4    207.000      2.490    204.000      2.960    198.000      4.400    201.000      3.440    256.7762 
4    210.000      2.010    207.000      2.490    201.000      3.440    204.000      2.960    215.2451 
4    213.000      1.540    210.000      2.010    204.000      2.960    207.000      2.490    212.1819 
4    216.000      1.070    213.000      1.540    207.000      2.490    210.000      2.010    278.2602 
4    219.000      0.590    216.000      1.070    210.000      2.010    213.000      1.540    263.8267 
4    222.000      0.410    219.000      0.590    213.000      1.540    216.000      1.070    298.4950 
4    225.000      0.300    222.000      0.410    216.000      1.070    219.000      0.590    312.6299 
4    228.000      0.190    225.000      0.300    219.000      0.590    222.000      0.410    397.0356 
4    231.000      0.070    228.000      0.190    222.000      0.410    225.000      0.300    484.6057 
4    234.000      0.000    231.000      0.070    225.000      0.300    228.000      0.190    284.3782 
4    237.000      0.000    234.000      0.000    228.000      0.190    231.000      0.070    389.3280 
4    240.000      0.000    237.000      0.000    231.000      0.070    234.000      0.000    499.3943 
4     12.000     38.410      9.000     38.320      0.000     38.050      3.000     38.140     88.5864 
4     15.000     38.500     12.000     38.410      3.000     38.140      6.000     38.230     84.1152 
4     18.000     38.590     15.000     38.500      6.000     38.230      9.000     38.320     71.7442 
4     21.000     38.680     18.000     38.590      9.000     38.320     12.000     38.410     53.2854 
4     24.000     38.770     21.000     38.680     12.000     38.410     15.000     38.500     54.8769 
4     27.000     38.870     24.000     38.770     15.000     38.500     18.000     38.590     49.3335 
4     30.000     38.960     27.000     38.870     18.000     38.590     21.000     38.680     66.8674 
4     33.000     37.920     30.000     38.960     21.000     38.680     24.000     38.770     58.4906 
4     36.000     36.830     33.000     37.920     24.000     38.770     27.000     38.870     50.9775 
4     39.000     35.740     36.000     36.830     27.000     38.870     30.000     38.960     54.4604 
4     42.000     34.650     39.000     35.740     30.000     38.960     33.000     37.920     57.1571 
4     45.000     33.560     42.000     34.650     33.000     37.920     36.000     36.830     58.6959 
4     48.000     33.480     45.000     33.560     36.000     36.830     39.000     35.740     40.7033 
4     51.000     33.440     48.000     33.480     39.000     35.740     42.000     34.650     38.9496 
4     54.000     33.390     51.000     33.440     42.000     34.650     45.000     33.560     40.2493 
4     57.000     33.340     54.000     33.390     45.000     33.560     48.000     33.480     81.6300 
4     60.000     33.290     57.000     33.340     48.000     33.480     51.000     33.440    181.0645 
4     63.000     32.830     60.000     33.290     51.000     33.440     54.000     33.390    191.0992 
4     66.000     31.550     63.000     32.830     54.000     33.390     57.000     33.340    585.8871 
4     69.000     30.260     66.000     31.550     57.000     33.340     60.000     33.290    721.8845 
4     72.000     28.980     69.000     30.260     60.000     33.290     63.000     32.830    336.3062 
4     75.000     28.190     72.000     28.980     63.000     32.830     66.000     31.550    630.5674 
4     78.000     27.560     75.000     28.190     66.000     31.550     69.000     30.260   1594.2721 
4     81.000     26.940     78.000     27.560     69.000     30.260     72.000     28.980   1625.4485 
4     84.000     26.310     81.000     26.940     72.000     28.980     75.000     28.190   1101.3826 
4     87.000     25.690     84.000     26.310     75.000     28.190     78.000     27.560    938.0677 
4     90.000     24.880     87.000     25.690     78.000     27.560     81.000     26.940   1724.2367 
4     93.000     23.950     90.000     24.880     81.000     26.940     84.000     26.310   2392.2576 
4     96.000     23.020     93.000     23.950     84.000     26.310     87.000     25.690   2229.8474 
4     99.000     22.090     96.000     23.020     87.000     25.690     90.000     24.880   2044.1100 
4    102.000     21.160     99.000     22.090     90.000     24.880     93.000     23.950   2061.3503 
4    105.000     20.420    102.000     21.160     93.000     23.950     96.000     23.020   1866.8322 
4    108.000     19.720    105.000     20.420     96.000     23.020     99.000     22.090   2318.2466 
4    111.000     19.210    108.000     19.720     99.000     22.090    102.000     21.160   1754.7889 
4    114.000     18.730    111.000     19.210    102.000     21.160    105.000     20.420   3074.3926 
4    117.000     18.240    114.000     18.730    105.000     20.420    108.000     19.720   2049.7263 
4    120.000     17.900    117.000     18.240    108.000     19.720    111.000     19.210   1713.5988 
4    123.000     17.570    120.000     17.900    111.000     19.210    114.000     18.730   2532.7468 
4    126.000     17.230    123.000     17.570    114.000     18.730    117.000     18.240   1543.0254 
4    129.000     16.900    126.000     17.230    117.000     18.240    120.000     17.900   2200.3450 
4    132.000     16.570    129.000     16.900    120.000     17.900    123.000     17.570   1601.0082 
4    135.000     16.370    132.000     16.570    123.000     17.570    126.000     17.230   1217.1874 
4    138.000     16.190    135.000     16.370    126.000     17.230    129.000     16.900   1324.3698 
4    141.000     16.000    138.000     16.190    129.000     16.900    132.000     16.570   1099.5618 
4    144.000     15.810    141.000     16.000    132.000     16.570    135.000     16.370    778.9579 
4    147.000     15.620    144.000     15.810    135.000     16.370    138.000     16.190    662.5219 
4    150.000     15.430    147.000     15.620    138.000     16.190    141.000     16.000    186.3584 
4    153.000     15.260    150.000     15.430    141.000     16.000    144.000     15.810    219.4683 
4    156.000     15.100    153.000     15.260    144.000     15.810    147.000     15.620    226.9592 
4    159.000     14.930    156.000     15.100    147.000     15.620    150.000     15.430    197.6871 
4    162.000     14.760    159.000     14.930    150.000     15.430    153.000     15.260    409.5413 
4    165.000     14.200    162.000     14.760    153.000     15.260    156.000     15.100    238.8457 
4    168.000     13.620    165.000     14.200    156.000     15.100    159.000     14.930    147.9919 
4    171.000     13.050    168.000     13.620    159.000     14.930    162.000     14.760    100.5951 
4    174.000     12.470    171.000     13.050    162.000     14.760    165.000     14.200     78.4405 
4    177.000     11.860    174.000     12.470    165.000     14.200    168.000     13.620     94.2252 
4    180.000     10.770    177.000     11.860    168.000     13.620    171.000     13.050     49.3577 
4    183.000      9.680    180.000     10.770    171.000     13.050    174.000     12.470     67.7516 
4    186.000      8.590    183.000      9.680    174.000     12.470    177.000     11.860    249.2032 
4    189.000      7.500    186.000      8.590    177.000     11.860    180.000     10.770   1206.8278 
4    192.000      6.410    189.000      7.500    180.000     10.770    183.000      9.680   5412.9292 
4    195.000      5.410    192.000      6.410    183.000      9.680    186.000      8.590   5191.2129 
4    198.000      4.400    195.000      5.410    186.000      8.590    189.000      7.500   2828.7681 
4    201.000      3.440    198.000      4.400    189.000      7.500    192.000      6.410    732.1198 
4    204.000      2.960    201.000      3.440    192.000      6.410    195.000      5.410    203.0554 
4    207.000      2.490    204.000      2.960    195.000      5.410    198.000      4.400    203.4834 
4    210.000      2.010    207.000      2.490    198.000      4.400    201.000      3.440    250.1532 
4    213.000      1.540    210.000      2.010    201.000      3.440    204.000      2.960    208.1728 
4    216.000      1.070    213.000      1.540    204.000      2.960    207.000      2.490    203.7779 
4    219.000      0.590    216.000      1.070    207.000      2.490    210.000      2.010    277.2355 
4    222.000      0.410    219.000      0.590    210.000      2.010    213.000      1.540    275.1862 
4    225.000      0.300    222.000      0.410    213.000      1.540    216.000      1.070    255.8329 
4    228.000      0.190    225.000      0.300    216.000      1.070    219.000      0.590    275.0731 
4    231.000      0.070    228.000      0.190    219.000      0.590    222.000      0.410    406.5759 
4    234.000      0.000    231.000      0.070    222.000      0.410    225.000      0.300    306.1748 
4    237.000      0.000    234.000      0.000    225.000      0.300    228.000      0.190    252.3563 
4    240.000      0.000    237.000      0.000    228.000      0.190    231.000      0.070    715.5193 
4     18.000     38.590     12.000     38.410      0.000     38.050      6.000     38.230     96.6177 
4     24.000     38.770     18.000     38.590      6.000     38.230     12.000     38.410     68.4520 
4     30.000     38.960     24.000     38.770     12.000     38.410     18.000     38.590     66.1472 
4     36.000     36.830     30.000     38.960     18.000     38.590     24.000     38.770     61.6633 
4     42.000     34.650     36.000     36.830     24.000     38.770     30.000     38.960     53.7035 
4     48.000     33.480     42.000     34.650     30.000     38.960     36.000     36.830     64.9163 
4     54.000     33.390     48.000     33.480     36.000     36.830     42.000     34.650     46.3199 
4     60.000     33.290     54.000     33.390     42.000     34.650     48.000     33.480     70.9798 
4     66.000     31.550     60.000     33.290     48.000     33.480     54.000     33.390    226.0522 
4     72.000     28.980     66.000     31.550     54.000     33.390     60.000     33.290    589.8071 
4     78.000     27.560     72.000     28.980     60.000     33.290     66.000     31.550    485.8006 
4     84.000     26.310     78.000     27.560     66.000     31.550     72.000     28.980   1394.6484 
4     90.000     24.880     84.000     26.310     72.000     28.980     78.000     27.560    947.3259 
4     96.000     23.020     90.000     24.880     78.000     27.560     84.000     26.310   2270.8813 
4    102.000     21.160     96.000     23.020     84.000     26.310     90.000     24.880   2152.2083 
4    108.000     19.720    102.000     21.160     90.000     24.880     96.000     23.020   1903.2245 
4    114.000     18.730    108.000     19.720     96.000     23.020    102.000     21.160   2126.6482 
4    120.000     17.900    114.000     18.730    102.000     21.160    108.000     19.720   2115.2368 
4    126.000     17.230    120.000     17.900    108.000     19.720    114.000     18.730   2081.4207 
4    132.000     16.570    126.000     17.230    114.000     18.730    120.000     17.900   2274.1838 
4    138.000     16.190    132.000     16.570    120.000     17.900    126.000     17.230   1389.6044 
4    144.000     15.810    138.000     16.190    126.000     17.230    132.000     16.570   1022.7822 
4    150.000     15.430    144.000     15.810    132.000     16.570    138.000     16.190    536.2375 
4    156.000     15.100    150.000     15.430    138.000     16.190    144.000     15.810    238.7394 
4    162.000     14.760    156.000     15.100    144.000     15.810    150.000     15.430    159.2354 
4    168.000     13.620    162.000     14.760    150.000     15.430    156.000     15.100    175.1516 
4    186.000      8.590    180.000     10.770    168.000     13.620    174.000     12.470     75.2839 
4    192.000      6.410    186.000      8.590    174.000     12.470    180.000     10.770   1031.0157 
4    198.000      4.400    192.000      6.410    180.000     10.770    186.000      8.590   4854.1489 
4    204.000      2.960    198.000      4.400    186.000      8.590    192.000      6.410    674.0454 
4    210.000      2.010    204.000      2.960    192.000      6.410    198.000      4.400    201.8731 
4    216.000      1.070    210.000      2.010    198.000      4.400    204.000      2.960    202.8254 
4    222.000      0.410    216.000      1.070    204.000      2.960    210.000      2.010    254.3932 
4    228.000      0.190    222.000      0.410    210.000      2.010    216.000      1.070    245.0186 
4    234.000      0.000    228.000      0.190    216.000      1.070    222.000      0.410    371.3540 
4    240.000      0.000    234.000      0.000    222.000      0.410    228.000      0.190    332.3614 
4     15.000     38.500     12.000     38.410      0.000     38.050      3.000     38.140    112.0727 
4     18.000     38.590     15.000     38.500      3.000     38.140      6.000     38.230     99.6778 
4     21.000     38.680     18.000     38.590      6.000     38.230      9.000     38.320     84.0975 
4     24.000     38.770     21.000     38.680      9.000     38.320     12.000     38.410     72.0068 
4     27.000     38.870     24.000     38.770     12.000     38.410     15.000     38.500     63.7281 
4     30.000     38.960     27.000     38.870     15.000     38.500     18.000     38.590     89.8666 
4     33.000     37.920     30.000     38.960     18.000     38.590     21.000     38.680     60.7712 
4     36.000     36.830     33.000     37.920     21.000     38.680     24.000     38.770     63.3967 
4     39.000     35.740     36.000     36.830     24.000     38.770     27.000     38.870     39.8116 
4     42.000     34.650     39.000     35.740     27.000     38.870     30.000     38.960     65.4573 
4     45.000     33.560     42.000     34.650     30.000     38.960     33.000     37.920     62.1962 
4     48.000     33.480     45.000     33.560     33.000     37.920     36.000     36.830     73.7542 
4     51.000     33.440     48.000     33.480     36.000     36.830     39.000     35.740     52.4587 
4     54.000     33.390     51.000     33.440     39.000     35.740     42.000     34.650     47.8725 
4     57.000     33.340     54.000     33.390     42.000     34.650     45.000     33.560     54.3028 
4     60.000     33.290     57.000     33.340     45.000     33.560     48.000     33.480     64.2851 
4     63.000     32.830     60.000     33.290     48.000     33.480     51.000     33.440    139.5248 
4     66.000     31.550     63.000     32.830     51.000     33.440     54.000     33.390    393.4803 
4     69.000     30.260     66.000     31.550     54.000     33.390     57.000     33.340    820.1592 
4     72.000     28.980     69.000     30.260     57.000     33.340     60.000     33.290    223.7648 
4     75.000     28.190     72.000     28.980     60.000     33.290     63.000     32.830    241.4487 
4     78.000     27.560     75.000     28.190     63.000     32.830     66.000     31.550    526.1016 
4     81.000     26.940     78.000     27.560     66.000     31.550     69.000     30.260   1753.9701 
4     84.000     26.310     81.000     26.940     69.000     30.260     72.000     28.980    757.1471 
4     87.000     25.690     84.000     26.310     72.000     28.980     75.000     28.190    999.7691 
4     90.000     24.880     87.000     25.690     75.000     28.190     78.000     27.560    938.4760 
4     93.000     23.950     90.000     24.880     78.000     27.560     81.000     26.940   2017.2888 
4     96.000     23.020     93.000     23.950     81.000     26.940     84.000     26.310   2442.9475 
4     99.000     22.090     96.000     23.020     84.000     26.310     87.000     25.690   2350.2644 
4    102.000     21.160     99.000     22.090     87.000     25.690     90.000     24.880   2151.3828 
4    105.000     20.420    102.000     21.160     90.000     24.880     93.000     23.950   1971.8181 
4    108.000     19.720    105.000     20.420     93.000     23.950     96.000     23.020   1993.2670 
4    111.000     19.210    108.000     19.720     96.000     23.020     99.000     22.090   1574.6259 
4    114.000     18.730    111.000     19.210     99.000     22.090    102.000     21.160   3192.7207 
4    117.000     18.240    114.000     18.730    102.000     21.160    105.000     20.420   1927.1786 
4    120.000     17.900    117.000     18.240    105.000     20.420    108.000     19.720   2398.0537 
4    123.000     17.570    120.000     17.900    108.000     19.720    111.000     19.210   1565.3010 
4    126.000     17.230    123.000     17.570    111.000     19.210    114.000     18.730   1833.1777 
4    129.000     16.900    126.000     17.230    114.000     18.730    117.000     18.240   1758.3583 
4    132.000     16.570    129.000     16.900    117.000     18.240    120.000     17.900   2272.4534 
4    135.000     16.370    132.000     16.570    120.000     17.900    123.000     17.570   1735.2411 
4    138.000     16.190    135.000     16.370    123.000     17.570    126.000     17.230   1255.7932 
4    141.000     16.000    138.000     16.190    126.000     17.230    129.000     16.900   1053.0719 
4    144.000     15.810    141.000     16.000    129.000     16.900    132.000     16.570    892.3436 
4    147.000     15.620    144.000     15.810    132.000     16.570    135.000     16.370    657.9494 
4    150.000     15.430    147.000     15.620    135.000     16.370    138.000     16.190    184.8225 
4    153.000     15.260    150.000     15.430    138.000     16.190    141.000     16.000    219.1538 
4    156.000     15.100    153.000     15.260    141.000     16.000    144.000     15.810    281.8821 
4    159.000     14.930    156.000     15.100    144.000     15.810    147.000     15.620    167.0284 
4    162.000     14.760    159.000     14.930    147.000     15.620    150.000     15.430    114.9188 
4    165.000     14.200    162.000     14.760    150.000     15.430    153.000     15.260    168.9273 
4    168.000     13.620    165.000     14.200    153.000     15.260    156.000     15.100    117.9232 
4    171.000     13.050    168.000     13.620    156.000     15.100    159.000     14.930     74.0103 
4    174.000     12.470    171.000     13.050    159.000     14.930    162.000     14.760     61.9734 
4    177.000     11.860    174.000     12.470    162.000     14.760    165.000     14.200    101.8577 
4    180.000     10.770    177.000     11.860    165.000     14.200    168.000     13.620     90.1182 
4    183.000      9.680    180.000     10.770    168.000     13.620    171.000     13.050     46.9198 
4    186.000      8.590    183.000      9.680    171.000     13.050    174.000     12.470    112.1615 
4    189.000      7.500    186.000      8.590    174.000     12.470    177.000     11.860    286.3438 
4    192.000      6.410    189.000      7.500    177.000     11.860    180.000     10.770   1667.7899 
4    195.000      5.410    192.000      6.410    180.000     10.770    183.000      9.680   4326.7534 
4    198.000      4.400    195.000      5.410    183.000      9.680    186.000      8.590   5139.1260 
4    201.000      3.440    198.000      4.400    186.000      8.590    189.000      7.500    998.9095 
4    204.000      2.960    201.000      3.440    189.000      7.500    192.000      6.410    326.1156 
4    207.000      2.490    204.000      2.960    192.000      6.410    195.000      5.410    196.2018 
4    210.000      2.010    207.000      2.490    195.000      5.410    198.000      4.400    209.6095 
4    213.000      1.540    210.000      2.010    198.000      4.400    201.000      3.440    218.2688 
4    216.000      1.070    213.000      1.540    201.000      3.440    204.000      2.960    186.8498 
4    219.000      0.590    216.000      1.070    204.000      2.960    207.000      2.490    209.8753 
4    222.000      0.410    219.000      0.590    207.000      2.490    210.000      2.010    283.9897 
4    225.000      0.300    222.000      0.410    210.000      2.010    213.000      1.540    240.8560 
4    228.000      0.190    225.000      0.300    213.000      1.540    216.000      1.070    230.9227 
4    231.000      0.070    228.000      0.190    216.000      1.070    219.000      0.590    336.5256 
4    234.000      0.000    231.000      0.070    219.000      0.590    222.000      0.410    336.6467 
4    237.000      0.000    234.000      0.000    222.000      0.410    225.000      0.300    275.3994 
4    240.000      0.000    237.000      0.000    225.000      0.300    228.000      0.190    488.1190 
4     18.000     38.590     15.000     38.500      0.000     38.050      3.000     38.140    121.6350 
4     21.000     38.680     18.000     38.590      3.000     38.140      6.000     38.230    106.6083 
4     24.000     38.770     21.000     38.680      6.000     38.230      9.000     38.320    105.9006 
4     27.000     38.870     24.000     38.770      9.000     38.320     12.000     38.410     77.6022 
4     30.000     38.960     27.000     38.870     12.000     38.410     15.000     38.500    108.0820 
4     33.000     37.920     30.000     38.960     15.000     38.500     18.000     38.590     79.5125 
4     36.000     36.830     33.000     37.920     18.000     38.590     21.000     38.680     62.7627 
4     39.000     35.740     36.000     36.830     21.000     38.680     24.000     38.770     47.4378 
4     42.000     34.650     39.000     35.740     24.000     38.770     27.000     38.870     45.1999 
4     45.000     33.560     42.000     34.650     27.000     38.870     30.000     38.960     68.3609 
4     48.000     33.480     45.000     33.560     30.000     38.960     33.000     37.920     73.7539 
4     51.000     33.440     48.000     33.480     33.000     37.920     36.000     36.830     86.6604 
4     54.000     33.390     51.000     33.440     36.000     36.830     39.000     35.740     59.5539 
4     57.000     33.340     54.000     33.390     39.000     35.740     42.000     34.650     60.1472 
4     60.000     33.290     57.000     33.340     42.000     34.650     45.000     33.560     46.2005 
4     63.000     32.830     60.000     33.290     45.000     33.560     48.000     33.480     59.5202 
4     66.000     31.550     63.000     32.830     48.000     33.480     51.000     33.440    261.0298 
4     69.000     30.260     66.000     31.550     51.000     33.440     54.000     33.390    493.8689 
4     72.000     28.980     69.000     30.260     54.000     33.390     57.000     33.340    240.4076 
4     75.000     28.190     72.000     28.980     57.000     33.340     60.000     33.290    161.2791 
4     78.000     27.560     75.000     28.190     60.000     33.290     63.000     32.830    191.9081 
4     81.000     26.940     78.000     27.560     63.000     32.830     66.000     31.550    556.0419 
4     84.000     26.310     81.000     26.940     66.000     31.550     69.000     30.260    775.3320 
4     87.000     25.690     84.000     26.310     69.000     30.260     72.000     28.980    618.7340 
4     90.000     24.880     87.000     25.690     72.000     28.980     75.000     28.190    887.6705 
4     93.000     23.950     90.000     24.880     75.000     28.190     78.000     27.560   1041.3143 
4     96.000     23.020     93.000     23.950     78.000     27.560     81.000     26.940   1827.3136 
4     99.000     22.090     96.000     23.020     81.000     26.940     84.000     26.310   2309.8662 
4    102.000     21.160     99.000     22.090     84.000     26.310     87.000     25.690   2268.1672 
4    105.000     20.420    102.000     21.160     87.000     25.690     90.000     24.880   1929.9608 
4    108.000     19.720    105.000     20.420     90.000     24.880     93.000     23.950   1790.9077 
4    111.000     19.210    108.000     19.720     93.000     23.950     96.000     23.020   1219.3024 
4    114.000     18.730    111.000     19.210     96.000     23.020     99.000     22.090   2948.4700 
4    117.000     18.240    114.000     18.730     99.000     22.090    102.000     21.160   2045.8177 
4    120.000     17.900    117.000     18.240    102.000     21.160    105.000     20.420   2251.1121 
4    123.000     17.570    120.000     17.900    105.000     20.420    108.000     19.720   2041.7349 
4    126.000     17.230    123.000     17.570    108.000     19.720    111.000     19.210   1099.2473 
4    129.000     16.900    126.000     17.230    111.000     19.210    114.000     18.730   2113.1560 
4    132.000     16.570    129.000     16.900    114.000     18.730    117.000     18.240   1761.8190 
4    135.000     16.370    132.000     16.570    117.000     18.240    120.000     17.900   2288.9092 
4    138.000     16.190    135.000     16.370    120.000     17.900    123.000     17.570   1731.0226 
4    141.000     16.000    138.000     16.190    123.000     17.570    126.000     17.230    959.4205 
4    144.000     15.810    141.000     16.000    126.000     17.230    129.000     16.900    859.5431 
4    147.000     15.620    144.000     15.810    129.000     16.900    132.000     16.570    692.4644 
4    150.000     15.430    147.000     15.620    132.000     16.570    135.000     16.370    182.4814 
4    153.000     15.260    150.000     15.430    135.000     16.370    138.000     16.190    212.9872 
4    156.000     15.100    153.000     15.260    138.000     16.190    141.000     16.000    258.6423 
4    159.000     14.930    156.000     15.100    141.000     16.000    144.000     15.810    198.9721 
4    162.000     14.760    159.000     14.930    144.000     15.810    147.000     15.620    120.1591 
4    165.000     14.200    162.000     14.760    147.000     15.620    150.000     15.430     73.5271 
4    168.000     13.620    165.000     14.200    150.000     15.430    153.000     15.260    107.0505 
4    171.000     13.050    168.000     13.620    153.000     15.260    156.000     15.100     69.6116 
4    174.000     12.470    171.000     13.050    156.000     15.100    159.000     14.930     59.1093 
4    177.000     11.860    174.000     12.470    159.000     14.930    162.000     14.760     89.0095 
4    180.000     10.770    177.000     11.860    162.000     14.760    165.000     14.200     86.8559 
4    183.000      9.680    180.000     10.770    165.000     14.200    168.000     13.620     82.5778 
4    186.000      8.590    183.000      9.680    168.000     13.620    171.000     13.050     78.1648 
4    189.000      7.500    186.000      8.590    171.000     13.050    174.000     12.470    123.5136 
4    192.000      6.410    189.000      7.500    174.000     12.470    177.000     11.860    352.5719 
4    195.000      5.410    192.000      6.410    177.000     11.860    180.000     10.770   1140.9259 
4    198.000      4.400    195.000      5.410    180.000     10.770    183.000      9.680   3549.9670 
4    201.000      3.440    198.000      4.400    183.000      9.680    186.000      8.590   1573.5798 
4    204.000      2.960    201.000      3.440    186.000      8.590    189.000      7.500    423.7520 
4    207.000      2.490    204.000      2.960    189.000      7.500    192.000      6.410    305.7134 
4    210.000      2.010    207.000      2.490    192.000      6.410    195.000      5.410    200.7319 
4    213.000      1.540    210.000      2.010    195.000      5.410    198.000      4.400    180.9682 
4    216.000      1.070    213.000      1.540    198.000      4.400    201.000      3.440    189.8599 
4    219.000      0.590    216.000      1.070    201.000      3.440    204.000      2.960    188.2494 
4    222.000      0.410    219.000      0.590    204.000      2.960    207.000      2.490    219.3557 
4    225.000      0.300    222.000      0.410    207.000      2.490    210.000      2.010    256.8859 
4    228.000      0.190    225.000      0.300    210.000      2.010    213.000      1.540    231.6211 
4    231.000      0.070    228.000      0.190    213.000      1.540    216.000      1.070    318.0105 
4    234.000      0.000    231.000      0.070    216.000      1.070    219.000      0.590    334.6935 
4    237.000      0.000    234.000      0.000    219.000      0.590    222.000      0.410    318.4493 
4    240.000      0.000    237.000      0.000    222.000      0.410    225.000      0.300    532.7563 
4     24.000     38.770     18.000     38.590      0.000     38.050      6.000     38.230    119.2914 
4     30.000     38.960     24.000     38.770      6.000     38.230     12.000     38.410    108.3830 
4     36.000     36.830     30.000     38.960     12.000     38.410     18.000     38.590     84.1915 
4     42.000     34.650     36.000     36.830     18.000     38.590     24.000     38.770     48.0854 
4     48.000     33.480     42.000     34.650     24.000     38.770     30.000     38.960     62.9093 
4     54.000     33.390     48.000     33.480     30.000     38.960     36.000     36.830     88.0612 
4     60.000     33.290     54.000     33.390     36.000     36.830     42.000     34.650     60.4243 
4     66.000     31.550     60.000     33.290     42.000     34.650     48.000     33.480     76.9546 
4     72.000     28.980     66.000     31.550     48.000     33.480     54.000     33.390    324.2356 
4     78.000     27.560     72.000     28.980     54.000     33.390     60.000     33.290    157.1723 
4     84.000     26.310     78.000     27.560     60.000     33.290     66.000     31.550    342.5415 
4     90.000     24.880     84.000     26.310     66.000     31.550     72.000     28.980    599.6014 
4     96.000     23.020     90.000     24.880     72.000     28.980     78.000     27.560    945.7109 
4    102.000     21.160     96.000     23.020     78.000     27.560     84.000     26.310   1953.4987 
4    108.000     19.720    102.000     21.160     84.000     26.310     90.000     24.880   1843.5544 
4    114.000     18.730    108.000     19.720     90.000     24.880     96.000     23.020   1803.5948 
4    120.000     17.900    114.000     18.730     96.000     23.020    102.000     21.160   2088.7539 
4    126.000     17.230    120.000     17.900    102.000     21.160    108.000     19.720   1751.5610 
4    132.000     16.570    126.000     17.230    108.000     19.720    114.000     18.730   1833.4346 
4    138.000     16.190    132.000     16.570    114.000     18.730    120.000     17.900   2071.1289 
4    144.000     15.810    138.000     16.190    120.000     17.900    126.000     17.230    985.9192 
4    150.000     15.430    144.000     15.810    126.000     17.230    132.000     16.570    566.4638 
4    156.000     15.100    150.000     15.430    132.000     16.570    138.000     16.190    223.3026 
4    162.000     14.760    156.000     15.100    138.000     16.190    144.000     15.810    173.6402 
4    174.000     12.470    168.000     13.620    150.000     15.430    156.000     15.100     66.9305 
4    186.000      8.590    180.000     10.770    162.000     14.760    168.000     13.620    100.2056 
4    192.000      6.410    186.000      8.590    168.000     13.620    174.000     12.470    114.5201 
4    198.000      4.400    192.000      6.410    174.000     12.470    180.000     10.770    730.0795 
4    204.000      2.960    198.000      4.400    180.000     10.770    186.000      8.590   1060.9209 
4    210.000      2.010    204.000      2.960    186.000      8.590    192.000      6.410    332.0216 
4    216.000      1.070    210.000      2.010    192.000      6.410    198.000      4.400    169.4212 
4    222.000      0.410    216.000      1.070    198.000      4.400    204.000      2.960    206.1167 
4    228.000      0.190    222.000      0.410    204.000      2.960    210.000      2.010    237.2597 
4    234.000      0.000    228.000      0.190    210.000      2.010    216.000      1.070    338.8826 
4    240.000      0.000    234.000      0.000    216.000      1.070    222.000      0.410    428.8031 
4     21.000     38.680     18.000     38.590      0.000     38.050      3.000     38.140    121.8524 
4     24.000     38.770     21.000     38.680      3.000     38.140      6.000     38.230    126.9170 
4     27.000     38.870     24.000     38.770      6.000     38.230      9.000     38.320    107.3989 
4     30.000     38.960     27.000     38.870      9.000     38.320     12.000     38.410    126.2785 
4     33.000     37.920     30.000     38.960     12.000     38.410     15.000     38.500     92.5602 
4     36.000     36.830     33.000     37.920     15.000     38.500     18.000     38.590     80.0045 
4     39.000     35.740     36.000     36.830     18.000     38.590     21.000     38.680     46.3480 
4     42.000     34.650     39.000     35.740     21.000     38.680     24.000     38.770     51.0260 
4     45.000     33.560     42.000     34.650     24.000     38.770     27.000     38.870     46.4094 
4     48.000     33.480     45.000     33.560     27.000     38.870     30.000     38.960     78.4946 
4     51.000     33.440     48.000     33.480     30.000     38.960     33.000     37.920     83.0211 
4     54.000     33.390     51.000     33.440     33.000     37.920     36.000     36.830     93.0968 
4     57.000     33.340     54.000     33.390     36.000     36.830     39.000     35.740     69.0879 
4     60.000     33.290     57.000     33.340     39.000     35.740     42.000     34.650     47.9395 
4     63.000     32.830     60.000     33.290     42.000     34.650     45.000     33.560     47.4750 
4     66.000     31.550     63.000     32.830     45.000     33.560     48.000     33.480    121.7776 
4     69.000     30.260     66.000     31.550     48.000     33.480     51.000     33.440    327.9362 
4     72.000     28.980     69.000     30.260     51.000     33.440     54.000     33.390    152.7274 
4     75.000     28.190     72.000     28.980     54.000     33.390     57.000     33.340    185.3057 
4     78.000     27.560     75.000     28.190     57.000     33.340     60.000     33.290    119.4813 
4     81.000     26.940     78.000     27.560     60.000     33.290     63.000     32.830    194.3257 
4     84.000     26.310     81.000     26.940     63.000     32.830     66.000     31.550    259.5903 
4     87.000     25.690     84.000     26.310     66.000     31.550     69.000     30.260    650.9679 
4     90.000     24.880     87.000     25.690     69.000     30.260     72.000     28.980    524.7798 
4     93.000     23.950     90.000     24.880     72.000     28.980     75.000     28.190    921.2954 
4     96.000     23.020     93.000     23.950     75.000     28.190     78.000     27.560    908.2960 
4     99.000     22.090     96.000     23.020     78.000     27.560     81.000     26.940   1605.5872 
4    102.000     21.160     99.000     22.090     81.000     26.940     84.000     26.310   2051.6819 
4    105.000     20.420    102.000     21.160     84.000     26.310     87.000     25.690   1882.1670 
4    108.000     19.720    105.000     20.420     87.000     25.690     90.000     24.880   1731.1973 
4    111.000     19.210    108.000     19.720     90.000     24.880     93.000     23.950   1670.5507 
4    114.000     18.730    111.000     19.210     93.000     23.950     96.000     23.020   2487.0669 
4    117.000     18.240    114.000     18.730     96.000     23.020     99.000     22.090   1849.3677 
4    120.000     17.900    117.000     18.240     99.000     22.090    102.000     21.160   2369.9575 
4    123.000     17.570    120.000     17.900    102.000     21.160    105.000     20.420   1878.2363 
4    126.000     17.230    123.000     17.570    105.000     20.420    108.000     19.720   1420.0111 
4    129.000     16.900    126.000     17.230    108.000     19.720    111.000     19.210   1252.7744 
4    132.000     16.570    129.000     16.900    111.000     19.210    114.000     18.730   2164.1797 
4    135.000     16.370    132.000     16.570    114.000     18.730    117.000     18.240   1746.1978 
4    138.000     16.190    135.000     16.370    117.000     18.240    120.000     17.900   2218.1526 
4    141.000     16.000    138.000     16.190    120.000     17.900    123.000     17.570   1299.4261 
4    144.000     15.810    141.000     16.000    123.000     17.570    126.000     17.230    760.9740 
4    147.000     15.620    144.000     15.810    126.000     17.230    129.000     16.900    626.7939 
4    150.000     15.430    147.000     15.620    129.000     16.900    132.000     16.570    188.5377 
4    153.000     15.260    150.000     15.430    132.000     16.570    135.000     16.370    208.0440 
4    156.000     15.100    153.000     15.260    135.000     16.370    138.000     16.190    246.8344 
4    159.000     14.930    156.000     15.100    138.000     16.190    141.000     16.000    179.5668 
4    162.000     14.760    159.000     14.930    141.000     16.000    144.000     15.810    150.2863 
4    165.000     14.200    162.000     14.760    144.000     15.810    147.000     15.620    101.9026 
4    168.000     13.620    165.000     14.200    147.000     15.620    150.000     15.430     60.8286 
4    171.000     13.050    168.000     13.620    150.000     15.430    153.000     15.260     64.4233 
4    174.000     12.470    171.000     13.050    153.000     15.260    156.000     15.100     60.7453 
4    177.000     11.860    174.000     12.470    156.000     15.100    159.000     14.930     83.0660 
4    180.000     10.770    177.000     11.860    159.000     14.930    162.000     14.760     77.6525 
4    183.000      9.680    180.000     10.770    162.000     14.760    165.000     14.200     75.4142 
4    186.000      8.590    183.000      9.680    165.000     14.200    168.000     13.620    136.3273 
4    189.000      7.500    186.000      8.590    168.000     13.620    171.000     13.050     83.9396 
4    192.000      6.410    189.000      7.500    171.000     13.050    174.000     12.470    141.5378 
4    195.000      5.410    192.000      6.410    174.000     12.470    177.000     11.860    230.5396 
4    198.000      4.400    195.000      5.410    177.000     11.860    180.000     10.770    842.5034 
4    201.000      3.440    198.000      4.400    180.000     10.770    183.000      9.680    988.0441 
4    204.000      2.960    201.000      3.440    183.000      9.680    186.000      8.590    638.2614 
4    207.000      2.490    204.000      2.960    186.000      8.590    189.000      7.500    379.2431 
4    210.000      2.010    207.000      2.490    189.000      7.500    192.000      6.410    305.5454 
4    213.000      1.540    210.000      2.010    192.000      6.410    195.000      5.410    170.5873 
4    216.000      1.070    213.000      1.540    195.000      5.410    198.000      4.400    157.9646 
4    219.000      0.590    216.000      1.070    198.000      4.400    201.000      3.440    189.8337 
4    222.000      0.410    219.000      0.590    201.000      3.440    204.000      2.960    193.5681 
4    225.000      0.300    222.000      0.410    204.000      2.960    207.000      2.490    204.7525 
4    228.000      0.190    225.000      0.300    207.000      2.490    210.000      2.010    254.6008 
4    231.000      0.070    228.000      0.190    210.000      2.010    213.000      1.540    349.7530 
4    234.000      0.000    231.000      0.070    213.000      1.540    216.000      1.070    339.0494 
4    237.000      0.000    234.000      0.000    216.000      1.070    219.000      0.590    322.5132 
4    240.000      0.000    237.000      0.000    219.000      0.590    222.000      0.410    614.2794 
4     36.000     36.830     24.000     38.770      0.000     38.050     12.000     38.410    123.3471 
4     42.000     34.650     30.000     38.960      6.000     38.230     18.000     38.590     85.5656 
4     48.000     33.480     36.000     36.830     12.000     38.410     24.000     38.770     52.2559 
4     54.000     33.390     42.000     34.650     18.000     38.590     30.000     38.960     62.7842 
4     60.000     33.290     48.000     33.480     24.000     38.770     36.000     36.830     85.0822 
4     66.000     31.550     54.000     33.390     30.000     38.960     42.000     34.650     73.2482 
4     72.000     28.980     60.000     33.290     36.000     36.830     48.000     33.480     87.4588 
4     78.000     27.560     66.000     31.550     42.000     34.650     54.000     33.390    213.8564 
4     84.000     26.310     72.000     28.980     48.000     33.480     60.000     33.290    135.1156 
4     90.000     24.880     78.000     27.560     54.000     33.390     66.000     31.550    237.2714 
4     96.000     23.020     84.000     26.310     60.000     33.290     72.000     28.980    458.0714 
4    102.000     21.160     90.000     24.880     66.000     31.550     78.000     27.560    752.1131 
4    108.000     19.720     96.000     23.020     72.000     28.980     84.000     26.310   1395.0284 
4    114.000     18.730    102.000     21.160     78.000     27.560     90.000     24.880   1593.9576 
4    120.000     17.900    108.000     19.720     84.000     26.310     96.000     23.020   1656.2539 
4    126.000     17.230    114.000     18.730     90.000     24.880    102.000     21.160   1799.3063 
4    132.000     16.570    120.000     17.900     96.000     23.020    108.000     19.720   1640.9451 
4    138.000     16.190    126.000     17.230    102.000     21.160    114.000     18.730   1715.2771 
4    144.000     15.810    132.000     16.570    108.000     19.720    120.000     17.900   1751.5294 
4    150.000     15.430    138.000     16.190    114.000     18.730    126.000     17.230    889.7322 
4    156.000     15.100    144.000     15.810    120.000     17.900    132.000     16.570    415.4359 
4    162.000     14.760    150.000     15.430    126.000     17.230    138.000     16.190    205.6553 
4    168.000     13.620    156.000     15.100    132.000     16.570    144.000     15.810    160.7480 
4    186.000      8.590    174.000     12.470    150.000     15.430    162.000     14.760     82.4572 
4    192.000      6.410    180.000     10.770    156.000     15.100    168.000     13.620    103.3970 
4    198.000      4.400    186.000      8.590    162.000     14.760    174.000     12.470    105.7322 
4    204.000      2.960    192.000      6.410    168.000     13.620    180.000     10.770    414.3049 
4    210.000      2.010    198.000      4.400    174.000     12.470    186.000      8.590    666.4758 
4    216.000      1.070    204.000      2.960    180.000     10.770    192.000      6.410    346.5800 
4    222.000      0.410    210.000      2.010    186.000      8.590    198.000      4.400    193.6057 
4    228.000      0.190    216.000      1.070    192.000      6.410    204.000      2.960    189.1433 
4    234.000      0.000    222.000      0.410    198.000      4.400    210.000      2.010    267.3983 
4    240.000      0.000    228.000      0.190    204.000      2.960    216.000      1.070    392.0225 
4     24.000     38.770     21.000     38.680      0.000     38.050      3.000     38.140    139.2029 
4     27.000     38.870     24.000     38.770      3.000     38.140      6.000     38.230    123.1543 
4     30.000     38.960     27.000     38.870      6.000     38.230      9.000     38.320    166.0609 
4     33.000     37.920     30.000     38.960      9.000     38.320     12.000     38.410    107.5585 
4     36.000     36.830     33.000     37.920     12.000     38.410     15.000     38.500     91.5475 
4     39.000     35.740     36.000     36.830     15.000     38.500     18.000     38.590     57.2528 
4     42.000     34.650     39.000     35.740     18.000     38.590     21.000     38.680     48.7758 
4     45.000     33.560     42.000     34.650     21.000     38.680     24.000     38.770     48.6637 
4     48.000     33.480     45.000     33.560     24.000     38.770     27.000     38.870     49.8506 
4     51.000     33.440     48.000     33.480     27.000     38.870     30.000     38.960     87.5467 
4     54.000     33.390     51.000     33.440     30.000     38.960     33.000     37.920     85.5763 
4     57.000     33.340     54.000     33.390     33.000     37.920     36.000     36.830    104.2714 
4     60.000     33.290     57.000     33.340     36.000     36.830     39.000     35.740     57.1290 
4     63.000     32.830     60.000     33.290     39.000     35.740     42.000     34.650     49.7318 
4     66.000     31.550     63.000     32.830     42.000     34.650     45.000     33.560     95.1930 
4     69.000     30.260     66.000     31.550     45.000     33.560     48.000     33.480    171.4991 
4     72.000     28.980     69.000     30.260     48.000     33.480     51.000     33.440    105.9479 
4     75.000     28.190     72.000     28.980     51.000     33.440     54.000     33.390    129.3142 
4     78.000     27.560     75.000     28.190     54.000     33.390     57.000     33.340    148.7652 
4     81.000     26.940     78.000     27.560     57.000     33.340     60.000     33.290    137.8140 
4     84.000     26.310     81.000     26.940     60.000     33.290     63.000     32.830    108.3964 
4     87.000     25.690     84.000     26.310     63.000     32.830     66.000     31.550    224.7691 
4     90.000     24.880     87.000     25.690     66.000     31.550     69.000     30.260    576.4517 
4     93.000     23.950     90.000     24.880     69.000     30.260     72.000     28.980    537.9095 
4     96.000     23.020     93.000     23.950     72.000     28.980     75.000     28.190    769.1881 
4     99.000     22.090     96.000     23.020     75.000     28.190     78.000     27.560    790.4464 
4    102.000     21.160     99.000     22.090     78.000     27.560     81.000     26.940   1350.0067 
4    105.000     20.420    102.000     21.160     81.000     26.940     84.000     26.310   1640.0662 
4    108.000     19.720    105.000     20.420     84.000     26.310     87.000     25.690   1686.0533 
4    111.000     19.210    108.000     19.720     87.000     25.690     90.000     24.880   1315.6890 
4    114.000     18.730    111.000     19.210     90.000     24.880     93.000     23.950   2406.9487 
4    117.000     18.240    114.000     18.730     93.000     23.950     96.000     23.020   1528.4358 
4    120.000     17.900    117.000     18.240     96.000     23.020     99.000     22.090   2136.7131 
4    123.000     17.570    120.000     17.900     99.000     22.090    102.000     21.160   1940.3507 
4    126.000     17.230    123.000     17.570    102.000     21.160    105.000     20.420   1300.0010 
4    129.000     16.900    126.000     17.230    105.000     20.420    108.000     19.720   1598.3729 
4    132.000     16.570    129.000     16.900    108.000     19.720    111.000     19.210   1286.4063 
4    135.000     16.370    132.000     16.570    111.000     19.210    114.000     18.730   2155.2415 
4    138.000     16.190    135.000     16.370    114.000     18.730    117.000     18.240   1685.6732 
4    141.000     16.000    138.000     16.190    117.000     18.240    120.000     17.900   1620.1823 
4    144.000     15.810    141.000     16.000    120.000     17.900    123.000     17.570   1001.0494 
4    147.000     15.620    144.000     15.810    123.000     17.570    126.000     17.230    525.1096 
4    150.000     15.430    147.000     15.620    126.000     17.230    129.000     16.900    168.6085 
4    153.000     15.260    150.000     15.430    129.000     16.900    132.000     16.570    211.8315 
4    156.000     15.100    153.000     15.260    132.000     16.570    135.000     16.370    235.8045 
4    159.000     14.930    156.000     15.100    135.000     16.370    138.000     16.190    173.9390 
4    162.000     14.760    159.000     14.930    138.000     16.190    141.000     16.000    141.7619 
4    165.000     14.200    162.000     14.760    141.000     16.000    144.000     15.810    129.4548 
4    168.000     13.620    165.000     14.200    144.000     15.810    147.000     15.620     92.4874 
4    171.000     13.050    168.000     13.620    147.000     15.620    150.000     15.430     42.5975 
4    174.000     12.470    171.000     13.050    150.000     15.430    153.000     15.260     57.2094 
4    177.000     11.860    174.000     12.470    153.000     15.260    156.000     15.100     89.1180 
4    180.000     10.770    177.000     11.860    156.000     15.100    159.000     14.930     72.6266 
4    183.000      9.680    180.000     10.770    159.000     14.930    162.000     14.760     70.5458 
4    186.000      8.590    183.000      9.680    162.000     14.760    165.000     14.200    127.9667 
4    189.000      7.500    186.000      8.590    165.000     14.200    168.000     13.620    129.3924 
4    192.000      6.410    189.000      7.500    168.000     13.620    171.000     13.050     89.8850 
4    195.000      5.410    192.000      6.410    171.000     13.050    174.000     12.470     94.7313 
4    198.000      4.400    195.000      5.410    174.000     12.470    177.000     11.860    179.5432 
4    201.000      3.440    198.000      4.400    177.000     11.860    180.000     10.770    253.4485 
4    204.000      2.960    201.000      3.440    180.000     10.770    183.000      9.680    387.6167 
4    207.000      2.490    204.000      2.960    183.000      9.680    186.000      8.590    558.5344 
4    210.000      2.010    207.000      2.490    186.000      8.590    189.000      7.500    371.6627 
4    213.000      1.540    210.000      2.010    189.000      7.500    192.000      6.410    257.8234 
4    216.000      1.070    213.000      1.540    192.000      6.410    195.000      5.410    148.6892 
4    219.000      0.590    216.000      1.070    195.000      5.410    198.000      4.400    161.7310 
4    222.000      0.410    219.000      0.590    198.000      4.400    201.000      3.440    196.6609 
4    225.000      0.300    222.000      0.410    201.000      3.440    204.000      2.960    186.5857 
4    228.000      0.190    225.000      0.300    204.000      2.960    207.000      2.490    205.9569 
4    231.000      0.070    228.000      0.190    207.000      2.490    210.000      2.010    402.3198 
4    234.000      0.000    231.000      0.070    210.000      2.010    213.000      1.540    378.8955 
4    237.000      0.000    234.000      0.000    213.000      1.540    216.000      1.070    321.6791 
4    240.000      0.000    237.000      0.000    216.000      1.070    219.000      0.590    613.4200 
4     30.000     38.960     24.000     38.770      0.000     38.050      6.000     38.230    152.3749 
4     36.000     36.830     30.000     38.960      6.000     38.230     12.000     38.410    117.5319 
4     42.000     34.650     36.000     36.830     12.000     38.410     18.000     38.590     59.9649 
4     48.000     33.480     42.000     34.650     18.000     38.590     24.000     38.770     50.7141 
4     54.000     33.390     48.000     33.480     24.000     38.770     30.000     38.960     76.0599 
4     60.000     33.290     54.000     33.390     30.000     38.960     36.000     36.830     92.8257 
4     66.000     31.550     60.000     33.290     36.000     36.830     42.000     34.650     72.4457 
4     72.000     28.980     66.000     31.550     42.000     34.650     48.000     33.480    119.2283 
4     78.000     27.560     72.000     28.980     48.000     33.480     54.000     33.390    110.1802 
4     84.000     26.310     78.000     27.560     54.000     33.390     60.000     33.290    122.1723 
4     90.000     24.880     84.000     26.310     60.000     33.290     66.000     31.550    171.3368 
4     96.000     23.020     90.000     24.880     66.000     31.550     72.000     28.980    528.5796 
4    102.000     21.160     96.000     23.020     72.000     28.980     78.000     27.560    682.3762 
4    108.000     19.720    102.000     21.160     78.000     27.560     84.000     26.310   1233.9485 
4    114.000     18.730    108.000     19.720     84.000     26.310     90.000     24.880   1565.7535 
4    120.000     17.900    114.000     18.730     90.000     24.880     96.000     23.020   1593.0664 
4    126.000     17.230    120.000     17.900     96.000     23.020    102.000     21.160   1605.8011 
4    132.000     16.570    126.000     17.230    102.000     21.160    108.000     19.720   1540.3406 
4    138.000     16.190    132.000     16.570    108.000     19.720    114.000     18.730   1760.8125 
4    144.000     15.810    138.000     16.190    114.000     18.730    120.000     17.900   1291.9335 
4    150.000     15.430    144.000     15.810    120.000     17.900    126.000     17.230    430.7663 
4    156.000     15.100    150.000     15.430    126.000     17.230    132.000     16.570    216.6413 
4    162.000     14.760    156.000     15.100    132.000     16.570    138.000     16.190    169.6630 
4    168.000     13.620    162.000     14.760    138.000     16.190    144.000     15.810    126.0673 
4    174.000     12.470    168.000     13.620    144.000     15.810    150.000     15.430     50.8479 
4    186.000      8.590    180.000     10.770    156.000     15.100    162.000     14.760     85.0355 
4    192.000      6.410    186.000      8.590    162.000     14.760    168.000     13.620    129.7532 
4    198.000      4.400    192.000      6.410    168.000     13.620    174.000     12.470     74.4741 
4    204.000      2.960    198.000      4.400    174.000     12.470    180.000     10.770    153.6552 
4    210.000      2.010    204.000      2.960    180.000     10.770    186.000      8.590    461.5106 
4    216.000      1.070    210.000      2.010    186.000      8.590    192.000      6.410    259.6387 
4    222.000      0.410    216.000      1.070    192.000      6.410    198.000      4.400    161.4476 
4    228.000      0.190    222.000      0.410    198.000      4.400    204.000      2.960    188.2901 
4    234.000      0.000    228.000      0.190    204.000      2.960    210.000      2.010    390.2265 
4    240.000      0.000    234.000      0.000    210.000      2.010    216.000      1.070    459.7452 
4     27.000     38.870     24.000     38.770      0.000     38.050      3.000     38.140    132.2458 
4     30.000     38.960     27.000     38.870      3.000     38.140      6.000     38.230    184.0336 
4     33.000     37.920     30.000     38.960      6.000     38.230      9.000     38.320    136.0344 
4     36.000     36.830     33.000     37.920      9.000     38.320     12.000     38.410    102.1834 
4     39.000     35.740     36.000     36.830     12.000     38.410     15.000     38.500     63.2246 
4     42.000     34.650     39.000     35.740     15.000     38.500     18.000     38.590     58.7173 
4     45.000     33.560     42.000     34.650     18.000     38.590     21.000     38.680     47.7484 
4     48.000     33.480     45.000     33.560     21.000     38.680     24.000     38.770     54.5367 
4     51.000     33.440     48.000     33.480     24.000     38.770     27.000     38.870     55.3262 
4     54.000     33.390     51.000     33.440     27.000     38.870     30.000     38.960     90.4545 
4     57.000     33.340     54.000     33.390     30.000     38.960     33.000     37.920     94.9277 
4     60.000     33.290     57.000     33.340     33.000     37.920     36.000     36.830     86.7665 
4     63.000     32.830     60.000     33.290     36.000     36.830     39.000     35.740     53.7819 
4     66.000     31.550     63.000     32.830     39.000     35.740     42.000     34.650     97.9107 
4     69.000     30.260     66.000     31.550     42.000     34.650     45.000     33.560    134.4441 
4     72.000     28.980     69.000     30.260     45.000     33.560     48.000     33.480     70.7250 
4     75.000     28.190     72.000     28.980     48.000     33.480     51.000     33.440    103.2042 
4     78.000     27.560     75.000     28.190     51.000     33.440     54.000     33.390    108.9580 
4     81.000     26.940     78.000     27.560     54.000     33.390     57.000     33.340    159.2229 
4     84.000     26.310     81.000     26.940     57.000     33.340     60.000     33.290     71.3634 
4     87.000     25.690     84.000     26.310     60.000     33.290     63.000     32.830     97.1384 
4     90.000     24.880     87.000     25.690     63.000     32.830     66.000     31.550    207.2772 
4     93.000     23.950     90.000     24.880     66.000     31.550     69.000     30.260    611.0466 
4     96.000     23.020     93.000     23.950     69.000     30.260     72.000     28.980    440.9155 
4     99.000     22.090     96.000     23.020     72.000     28.980     75.000     28.190    650.8286 
4    102.000     21.160     99.000     22.090     75.000     28.190     78.000     27.560    654.5621 
4    105.000     20.420    102.000     21.160     78.000     27.560     81.000     26.940   1055.1466 
4    108.000     19.720    105.000     20.420     81.000     26.940     84.000     26.310   1126.2887 
4    111.000     19.210    108.000     19.720     84.000     26.310     87.000     25.690   1058.9609 
4    114.000     18.730    111.000     19.210     87.000     25.690     90.000     24.880   2177.9297 
4    117.000     18.240    114.000     18.730     90.000     24.880     93.000     23.950   1462.4001 
4    120.000     17.900    117.000     18.240     93.000     23.950     96.000     23.020   1756.3878 
4    123.000     17.570    120.000     17.900     96.000     23.020     99.000     22.090   1715.3090 
4    126.000     17.230    123.000     17.570     99.000     22.090    102.000     21.160   1324.3198 
4    129.000     16.900    126.000     17.230    102.000     21.160    105.000     20.420   1447.6748 
4    132.000     16.570    129.000     16.900    105.000     20.420    108.000     19.720   1610.4604 
4    135.000     16.370    132.000     16.570    108.000     19.720    111.000     19.210   1251.4772 
4    138.000     16.190    135.000     16.370    111.000     19.210    114.000     18.730   2053.8240 
4    141.000     16.000    138.000     16.190    114.000     18.730    117.000     18.240   1203.6344 
4    144.000     15.810    141.000     16.000    117.000     18.240    120.000     17.900   1229.5317 
4    147.000     15.620    144.000     15.810    120.000     17.900    123.000     17.570    673.9092 
4    150.000     15.430    147.000     15.620    123.000     17.570    126.000     17.230    140.4834 
4    153.000     15.260    150.000     15.430    126.000     17.230    129.000     16.900    189.1376 
4    156.000     15.100    153.000     15.260    129.000     16.900    132.000     16.570    234.7997 
4    159.000     14.930    156.000     15.100    132.000     16.570    135.000     16.370    166.4626 
4    162.000     14.760    159.000     14.930    135.000     16.370    138.000     16.190    145.7199 
4    165.000     14.200    162.000     14.760    138.000     16.190    141.000     16.000    126.6820 
4    168.000     13.620    165.000     14.200    141.000     16.000    144.000     15.810    116.8403 
4    171.000     13.050    168.000     13.620    144.000     15.810    147.000     15.620     58.4399 
4    174.000     12.470    171.000     13.050    147.000     15.620    150.000     15.430     31.2538 
4    177.000     11.860    174.000     12.470    150.000     15.430    153.000     15.260     80.5805 
4    180.000     10.770    177.000     11.860    153.000     15.260    156.000     15.100     70.7089 
4    183.000      9.680    180.000     10.770    156.000     15.100    159.000     14.930     64.1875 
4    186.000      8.590    183.000      9.680    159.000     14.930    162.000     14.760    108.6768 
4    189.000      7.500    186.000      8.590    162.000     14.760    165.000     14.200    119.4904 
4    192.000      6.410    189.000      7.500    165.000     14.200    168.000     13.620    139.6079 
4    195.000      5.410    192.000      6.410    168.000     13.620    171.000     13.050     56.8605 
4    198.000      4.400    195.000      5.410    171.000     13.050    174.000     12.470     76.3140 
4    201.000      3.440    198.000      4.400    174.000     12.470    177.000     11.860     96.4073 
4    204.000      2.960    201.000      3.440    177.000     11.860    180.000     10.770    133.0870 
4    207.000      2.490    204.000      2.960    180.000     10.770    183.000      9.680    339.3107 
4    210.000      2.010    207.000      2.490    183.000      9.680    186.000      8.590    536.7552 
4    213.000      1.540    210.000      2.010    186.000      8.590    189.000      7.500    302.6756 
4    216.000      1.070    213.000      1.540    189.000      7.500    192.000      6.410    220.8820 
4    219.000      0.590    216.000      1.070    192.000      6.410    195.000      5.410    151.6746 
4    222.000      0.410    219.000      0.590    195.000      5.410    198.000      4.400    170.2284 
4    225.000      0.300    222.000      0.410    198.000      4.400    201.000      3.440    189.7622 
4    228.000      0.190    225.000      0.300    201.000      3.440    204.000      2.960    184.6226 
4    231.000      0.070    228.000      0.190    204.000      2.960    207.000      2.490    339.7339 
4    234.000      0.000    231.000      0.070    207.000      2.490    210.000      2.010    437.2670 
4    237.000      0.000    234.000      0.000    210.000      2.010    213.000      1.540    361.8090 
4    240.000      0.000    237.000      0.000    213.000      1.540    216.000      1.070    608.1348 
4     30.000     38.960     27.000     38.870      0.000     38.050      3.000     38.140    193.7045 
4     33.000     37.920     30.000     38.960      3.000     38.140      6.000     38.230    153.7427 
4     36.000     36.830     33.000     37.920      6.000     38.230      9.000     38.320    131.9622 
4     39.000     35.740     36.000     36.830      9.000     38.320     12.000     38.410     70.9134 
4     42.000     34.650     39.000     35.740     12.000     38.410     15.000     38.500     63.6394 
4     45.000     33.560     42.000     34.650     15.000     38.500     18.000     38.590     56.6711 
4     48.000     33.480     45.000     33.560     18.000     38.590     21.000     38.680     49.2691 
4     51.000     33.440     48.000     33.480     21.000     38.680     24.000     38.770     62.4305 
4     54.000     33.390     51.000     33.440     24.000     38.770     27.000     38.870     60.6201 
4     57.000     33.340     54.000     33.390     27.000     38.870     30.000     38.960    111.2539 
4     60.000     33.290     57.000     33.340     30.000     38.960     33.000     37.920     70.6949 
4     63.000     32.830     60.000     33.290     33.000     37.920     36.000     36.830     73.8204 
4     66.000     31.550     63.000     32.830     36.000     36.830     39.000     35.740    106.3199 
4     69.000     30.260     66.000     31.550     39.000     35.740     42.000     34.650    135.3952 
4     72.000     28.980     69.000     30.260     42.000     34.650     45.000     33.560     55.0874 
4     75.000     28.190     72.000     28.980     45.000     33.560     48.000     33.480     70.6494 
4     78.000     27.560     75.000     28.190     48.000     33.480     51.000     33.440     90.3582 
4     81.000     26.940     78.000     27.560     51.000     33.440     54.000     33.390    122.7111 
4     84.000     26.310     81.000     26.940     54.000     33.390     57.000     33.340    109.4692 
4     87.000     25.690     84.000     26.310     57.000     33.340     60.000     33.290     69.8928 
4     90.000     24.880     87.000     25.690     60.000     33.290     63.000     32.830    125.3128 
4     93.000     23.950     90.000     24.880     63.000     32.830     66.000     31.550    220.2908 
4     96.000     23.020     93.000     23.950     66.000     31.550     69.000     30.260    510.3542 
4     99.000     22.090     96.000     23.020     69.000     30.260     72.000     28.980    377.1712 
4    102.000     21.160     99.000     22.090     72.000     28.980     75.000     28.190    532.9056 
4    105.000     20.420    102.000     21.160     75.000     28.190     78.000     27.560    502.4481 
4    108.000     19.720    105.000     20.420     78.000     27.560     81.000     26.940    828.8022 
4    111.000     19.210    108.000     19.720     81.000     26.940     84.000     26.310   1236.5226 
4    114.000     18.730    111.000     19.210     84.000     26.310     87.000     25.690   1874.6697 
4    117.000     18.240    114.000     18.730     87.000     25.690     90.000     24.880   1258.0541 
4    120.000     17.900    117.000     18.240     90.000     24.880     93.000     23.950   1640.4362 
4    123.000     17.570    120.000     17.900     93.000     23.950     96.000     23.020   1392.4543 
4    126.000     17.230    123.000     17.570     96.000     23.020     99.000     22.090   1152.9075 
4    129.000     16.900    126.000     17.230     99.000     22.090    102.000     21.160   1442.1063 
4    132.000     16.570    129.000     16.900    102.000     21.160    105.000     20.420   1437.9127 
4    135.000     16.370    132.000     16.570    105.000     20.420    108.000     19.720   1544.6743 
4    138.000     16.190    135.000     16.370    108.000     19.720    111.000     19.210   1190.9557 
4    141.000     16.000    138.000     16.190    111.000     19.210    114.000     18.730   1462.2129 
4    144.000     15.810    141.000     16.000    114.000     18.730    117.000     18.240    895.8734 
4    147.000     15.620    144.000     15.810    117.000     18.240    120.000     17.900    776.9515 
4    150.000     15.430    147.000     15.620    120.000     17.900    123.000     17.570    207.1181 
4    153.000     15.260    150.000     15.430    123.000     17.570    126.000     17.230    154.6914 
4    156.000     15.100    153.000     15.260    126.000     17.230    129.000     16.900    205.2839 
4    159.000     14.930    156.000     15.100    129.000     16.900    132.000     16.570    171.6892 
4    162.000     14.760    159.000     14.930    132.000     16.570    135.000     16.370    140.6196 
4    165.000     14.200    162.000     14.760    135.000     16.370    138.000     16.190    130.2379 
4    168.000     13.620    165.000     14.200    138.000     16.190    141.000     16.000    118.0628 
4    171.000     13.050    168.000     13.620    141.000     16.000    144.000     15.810     69.7896 
4    174.000     12.470    171.000     13.050    144.000     15.810    147.000     15.620     50.4248 
4    180.000     10.770    177.000     11.860    150.000     15.430    153.000     15.260     60.1212 
4    183.000      9.680    180.000     10.770    153.000     15.260    156.000     15.100     58.8784 
4    186.000      8.590    183.000      9.680    156.000     15.100    159.000     14.930    105.7784 
4    189.000      7.500    186.000      8.590    159.000     14.930    162.000     14.760    106.0667 
4    192.000      6.410    189.000      7.500    162.000     14.760    165.000     14.200    112.0702 
4    195.000      5.410    192.000      6.410    165.000     14.200    168.000     13.620     91.8932 
4    198.000      4.400    195.000      5.410    168.000     13.620    171.000     13.050     53.6187 
4    201.000      3.440    198.000      4.400    171.000     13.050    174.000     12.470     62.6694 
4    207.000      2.490    204.000      2.960    177.000     11.860    180.000     10.770    130.4815 
4    210.000      2.010    207.000      2.490    180.000     10.770    183.000      9.680    330.3883 
4    213.000      1.540    210.000      2.010    183.000      9.680    186.000      8.590    435.0002 
4    216.000      1.070    213.000      1.540    186.000      8.590    189.000      7.500    256.9377 
4    219.000      0.590    216.000      1.070    189.000      7.500    192.000      6.410    225.9590 
4    222.000      0.410    219.000      0.590    192.000      6.410    195.000      5.410    161.9821 
4    225.000      0.300    222.000      0.410    195.000      5.410    198.000      4.400    167.3836 
4    228.000      0.190    225.000      0.300    198.000      4.400    201.000      3.440    191.0268 
4    231.000      0.070    228.000      0.190    201.000      3.440    204.000      2.960    313.1577 
4    234.000      0.000    231.000      0.070    204.000      2.960    207.000      2.490    371.2343 
4    237.000      0.000    234.000      0.000    207.000      2.490    210.000      2.010    414.3875 
4    240.000      0.000    237.000      0.000    210.000      2.010    213.000      1.540    684.1755 
4     36.000     36.830     30.000     38.960      0.000     38.050      6.000     38.230    150.7085 
4     42.000     34.650     36.000     36.830      6.000     38.230     12.000     38.410     78.7972 
4     48.000     33.480     42.000     34.650     12.000     38.410     18.000     38.590     60.3585 
4     54.000     33.390     48.000     33.480     18.000     38.590     24.000     38.770     62.6177 
4     60.000     33.290     54.000     33.390     24.000     38.770     30.000     38.960     77.4491 
4     66.000     31.550     60.000     33.290     30.000     38.960     36.000     36.830    104.5105 
4     72.000     28.980     66.000     31.550     36.000     36.830     42.000     34.650    108.3744 
4     78.000     27.560     72.000     28.980     42.000     34.650     48.000     33.480     64.5089 
4     84.000     26.310     78.000     27.560     48.000     33.480     54.000     33.390    103.4298 
4     90.000     24.880     84.000     26.310     54.000     33.390     60.000     33.290     74.1550 
4     96.000     23.020     90.000     24.880     60.000     33.290     66.000     31.550    184.9469 
4    102.000     21.160     96.000     23.020     66.000     31.550     72.000     28.980    378.3830 
4    108.000     19.720    102.000     21.160     72.000     28.980     78.000     27.560    368.5164 
4    114.000     18.730    108.000     19.720     78.000     27.560     84.000     26.310   1136.7911 
4    120.000     17.900    114.000     18.730     84.000     26.310     90.000     24.880   1232.8650 
4    126.000     17.230    120.000     17.900     90.000     24.880     96.000     23.020   1157.3408 
4    132.000     16.570    126.000     17.230     96.000     23.020    102.000     21.160   1354.6460 
4    138.000     16.190    132.000     16.570    102.000     21.160    108.000     19.720   1396.2251 
4    144.000     15.810    138.000     16.190    108.000     19.720    114.000     18.730   1066.5350 
4    150.000     15.430    144.000     15.810    114.000     18.730    120.000     17.900    516.1265 
4    156.000     15.100    150.000     15.430    120.000     17.900    126.000     17.230    180.5262 
4    162.000     14.760    156.000     15.100    126.000     17.230    132.000     16.570    160.2472 
4    168.000     13.620    162.000     14.760    132.000     16.570    138.000     16.190    116.1082 
4    174.000     12.470    168.000     13.620    138.000     16.190    144.000     15.810     90.1422 
4    186.000      8.590    180.000     10.770    150.000     15.430    156.000     15.100     80.6379 
4    192.000      6.410    186.000      8.590    156.000     15.100    162.000     14.760    100.8111 
4    198.000      4.400    192.000      6.410    162.000     14.760    168.000     13.620     84.6941 
4    204.000      2.960    198.000      4.400    168.000     13.620    174.000     12.470     57.3446 
4    210.000      2.010    204.000      2.960    174.000     12.470    180.000     10.770    136.4850 
4    216.000      1.070    210.000      2.010    180.000     10.770    186.000      8.590    363.5446 
4    222.000      0.410    216.000      1.070    186.000      8.590    192.000      6.410    249.0743 
4    228.000      0.190    222.000      0.410    192.000      6.410    198.000      4.400    162.6328 
4    234.000      0.000    228.000      0.190    198.000      4.400    204.000      2.960    328.4912 
4    240.000      0.000    234.000      0.000    204.000      2.960    210.000      2.010    526.7010 
4     54.000     33.390     36.000     36.830      0.000     38.050     18.000     38.590     73.7343 
4     60.000     33.290     42.000     34.650      6.000     38.230     24.000     38.770     63.8140 
4     66.000     31.550     48.000     33.480     12.000     38.410     30.000     38.960     73.4255 
4     72.000     28.980     54.000     33.390     18.000     38.590     36.000     36.830     96.1370 
4     78.000     27.560     60.000     33.290     24.000     38.770     42.000     34.650     95.1429 
4     84.000     26.310     66.000     31.550     30.000     38.960     48.000     33.480     98.2559 
4     90.000     24.880     72.000     28.980     36.000     36.830     54.000     33.390     85.4062 
4     96.000     23.020     78.000     27.560     42.000     34.650     60.000     33.290     89.5307 
4    102.000     21.160     84.000     26.310     48.000     33.480     66.000     31.550    123.4168 
4    108.000     19.720     90.000     24.880     54.000     33.390     72.000     28.980    288.4715 
4    114.000     18.730     96.000     23.020     60.000     33.290     78.000     27.560    439.9532 
4    120.000     17.900    102.000     21.160     66.000     31.550     84.000     26.310    747.3076 
4    126.000     17.230    108.000     19.720     72.000     28.980     90.000     24.880   1032.6216 
4    132.000     16.570    114.000     18.730     78.000     27.560     96.000     23.020   1116.0739 
4    138.000     16.190    120.000     17.900     84.000     26.310    102.000     21.160   1194.2061 
4    144.000     15.810    126.000     17.230     90.000     24.880    108.000     19.720   1278.0757 
4    150.000     15.430    132.000     16.570     96.000     23.020    114.000     18.730   1143.8551 
4    156.000     15.100    138.000     16.190    102.000     21.160    120.000     17.900    769.4838 
4    162.000     14.760    144.000     15.810    108.000     19.720    126.000     17.230    361.6751 
4    168.000     13.620    150.000     15.430    114.000     18.730    132.000     16.570    173.6208 
4    174.000     12.470    156.000     15.100    120.000     17.900    138.000     16.190    136.0826 
4    186.000      8.590    168.000     13.620    132.000     16.570    150.000     15.430     64.3796 
4    192.000      6.410    174.000     12.470    138.000     16.190    156.000     15.100     76.4537 
4    198.000      4.400    180.000     10.770    144.000     15.810    162.000     14.760     80.4081 
4    204.000      2.960    186.000      8.590    150.000     15.430    168.000     13.620     99.8960 
4    210.000      2.010    192.000      6.410    156.000     15.100    174.000     12.470     80.9727 
4    216.000      1.070    198.000      4.400    162.000     14.760    180.000     10.770    116.9217 
4    222.000      0.410    204.000      2.960    168.000     13.620    186.000      8.590    272.3972 
4    228.000      0.190    210.000      2.010    174.000     12.470    192.000      6.410    256.6350 
4    234.000      0.000    216.000      1.070    180.000     10.770    198.000      4.400    241.7330 
4    240.000      0.000    222.000      0.410    186.000      8.590    204.000      2.960    279.6194 
4     48.000     33.480     36.000     36.830      0.000     38.050     12.000     38.410     85.0635 
4     54.000     33.390     42.000     34.650      6.000     38.230     18.000     38.590     71.2027 
4     60.000     33.290     48.000     33.480     12.000     38.410     24.000     38.770     64.9588 
4     66.000     31.550     54.000     33.390     18.000     38.590     30.000     38.960     74.2743 
4     72.000     28.980     60.000     33.290     24.000     38.770     36.000     36.830    116.8748 
4     78.000     27.560     66.000     31.550     30.000     38.960     42.000     34.650    106.8001 
4     84.000     26.310     72.000     28.980     36.000     36.830     48.000     33.480     65.6801 
4     90.000     24.880     78.000     27.560     42.000     34.650     54.000     33.390     84.5384 
4     96.000     23.020     84.000     26.310     48.000     33.480     60.000     33.290     69.3539 
4    102.000     21.160     90.000     24.880     54.000     33.390     66.000     31.550    122.9685 
4    114.000     18.730    102.000     21.160     66.000     31.550     78.000     27.560    351.3889 
4    120.000     17.900    108.000     19.720     72.000     28.980     84.000     26.310   1002.7300 
4    126.000     17.230    114.000     18.730     78.000     27.560     90.000     24.880    921.0557 
4    132.000     16.570    120.000     17.900     84.000     26.310     96.000     23.020   1128.5123 
4    138.000     16.190    126.000     17.230     90.000     24.880    102.000     21.160   1324.4241 
4    144.000     15.810    132.000     16.570     96.000     23.020    108.000     19.720   1118.2793 
4    150.000     15.430    138.000     16.190    102.000     21.160    114.000     18.730   1027.6205 
4    156.000     15.100    144.000     15.810    108.000     19.720    120.000     17.900    359.5048 
4    174.000     12.470    162.000     14.760    126.000     17.230    138.000     16.190     87.3548 
4    186.000      8.590    174.000     12.470    138.000     16.190    150.000     15.430     67.3537 
4    192.000      6.410    180.000     10.770    144.000     15.810    156.000     15.100     77.4522 
4    198.000      4.400    186.000      8.590    150.000     15.430    162.000     14.760     88.3040 
4    204.000      2.960    192.000      6.410    156.000     15.100    168.000     13.620     84.2686 
4    210.000      2.010    198.000      4.400    162.000     14.760    174.000     12.470     84.0087 
4    216.000      1.070    204.000      2.960    168.000     13.620    180.000     10.770    110.2165 
4    222.000      0.410    210.000      2.010    174.000     12.470    186.000      8.590    258.2528 
4    228.000      0.190    216.000      1.070    180.000     10.770    192.000      6.410    267.6779 
4    234.000      0.000    222.000      0.410    186.000      8.590    198.000      4.400    253.1869 
4    240.000      0.000    228.000      0.190    192.000      6.410    204.000      2.960    350.7384 
4     42.000     34.650     36.000     36.830      0.000     38.050      6.000     38.230     97.2007 
4     48.000     33.480     42.000     34.650      6.000     38.230     12.000     38.410     76.6648 
4     54.000     33.390     48.000     33.480     12.000     38.410     18.000     38.590     69.6949 
4     60.000     33.290     54.000     33.390     18.000     38.590     24.000     38.770     62.5226 
4     66.000     31.550     60.000     33.290     24.000     38.770     30.000     38.960     92.3777 
4     72.000     28.980     66.000     31.550     30.000     38.960     36.000     36.830    152.7577 
4     78.000     27.560     72.000     28.980     36.000     36.830     42.000     34.650     58.5634 
4     84.000     26.310     78.000     27.560     42.000     34.650     48.000     33.480     71.4762 
4     90.000     24.880     84.000     26.310     48.000     33.480     54.000     33.390     81.6968 
4    108.000     19.720    102.000     21.160     66.000     31.550     72.000     28.980    285.6089 
4    114.000     18.730    108.000     19.720     72.000     28.980     78.000     27.560    451.7571 
4    126.000     17.230    120.000     17.900     84.000     26.310     90.000     24.880    863.7125 
4    132.000     16.570    126.000     17.230     90.000     24.880     96.000     23.020   1225.8988 
4    138.000     16.190    132.000     16.570     96.000     23.020    102.000     21.160   1167.1996 
4    144.000     15.810    138.000     16.190    102.000     21.160    108.000     19.720    987.7610 
4    150.000     15.430    144.000     15.810    108.000     19.720    114.000     18.730    346.3436 
4    156.000     15.100    150.000     15.430    114.000     18.730    120.000     17.900    220.8158 
4    168.000     13.620    162.000     14.760    126.000     17.230    132.000     16.570    108.8301 
4    186.000      8.590    180.000     10.770    144.000     15.810    150.000     15.430     56.1575 
4    192.000      6.410    186.000      8.590    150.000     15.430    156.000     15.100     93.4425 
4    198.000      4.400    192.000      6.410    156.000     15.100    162.000     14.760     66.0911 
4    204.000      2.960    198.000      4.400    162.000     14.760    168.000     13.620    109.3656 
4    210.000      2.010    204.000      2.960    168.000     13.620    174.000     12.470     82.5276 
4    216.000      1.070    210.000      2.010    174.000     12.470    180.000     10.770     91.9538 
4    222.000      0.410    216.000      1.070    180.000     10.770    186.000      8.590    279.3266 
4    228.000      0.190    222.000      0.410    186.000      8.590    192.000      6.410    253.8324 
4    234.000      0.000    228.000      0.190    192.000      6.410    198.000      4.400    287.4286 
4    240.000      0.000    234.000      0.000    198.000      4.400    204.000      2.960    432.7607 
4     72.000     28.980     48.000     33.480      0.000     38.050     24.000     38.770     87.7834 
4     78.000     27.560     54.000     33.390      6.000     38.230     30.000     38.960     91.5401 
4     84.000     26.310     60.000     33.290     12.000     38.410     36.000     36.830    108.2708 
4     90.000     24.880     66.000     31.550     18.000     38.590     42.000     34.650    103.4804 
4     96.000     23.020     72.000     28.980     24.000     38.770     48.000     33.480     78.3945 
4    102.000     21.160     78.000     27.560     30.000     38.960     54.000     33.390     85.0709 
4    114.000     18.730     90.000     24.880     42.000     34.650     66.000     31.550     92.1784 
4    126.000     17.230    102.000     21.160     54.000     33.390     78.000     27.560    227.0813 
4    138.000     16.190    114.000     18.730     66.000     31.550     90.000     24.880    512.5255 
4    156.000     15.100    132.000     16.570     84.000     26.310    108.000     19.720    565.1836 
4    186.000      8.590    162.000     14.760    114.000     18.730    138.000     16.190    102.0048 
4    192.000      6.410    168.000     13.620    120.000     17.900    144.000     15.810     69.4268 
4    198.000      4.400    174.000     12.470    126.000     17.230    150.000     15.430     75.7702 
4    204.000      2.960    180.000     10.770    132.000     16.570    156.000     15.100     78.4561 
4    210.000      2.010    186.000      8.590    138.000     16.190    162.000     14.760     88.0268 
4    216.000      1.070    192.000      6.410    144.000     15.810    168.000     13.620     93.2682 
4    222.000      0.410    198.000      4.400    150.000     15.430    174.000     12.470    104.8191 
4    228.000      0.190    204.000      2.960    156.000     15.100    180.000     10.770    133.7412 
4    234.000      0.000    210.000      2.010    162.000     14.760    186.000      8.590    244.9458 
4    240.000      0.000    216.000      1.070    168.000     13.620    192.000      6.410    306.2350 
4     48.000     33.480     42.000     34.650      0.000     38.050      6.000     38.230     93.9118 
4     54.000     33.390     48.000     33.480      6.000     38.230     12.000     38.410     87.0735 
4     60.000     33.290     54.000     33.390     12.000     38.410     18.000     38.590     82.5673 
4     66.000     31.550     60.000     33.290     18.000     38.590     24.000     38.770     64.5087 
4     72.000     28.980     66.000     31.550     24.000     38.770     30.000     38.960    136.8013 
4     78.000     27.560     72.000     28.980     30.000     38.960     36.000     36.830     99.2179 
4     84.000     26.310     78.000     27.560     36.000     36.830     42.000     34.650     71.4065 
4     90.000     24.880     84.000     26.310     42.000     34.650     48.000     33.480     64.7899 
4     96.000     23.020     90.000     24.880     48.000     33.480     54.000     33.390     85.4344 
4    114.000     18.730    108.000     19.720     66.000     31.550     72.000     28.980    231.5636 
4    132.000     16.570    126.000     17.230     84.000     26.310     90.000     24.880   1404.0817 
4    138.000     16.190    132.000     16.570     90.000     24.880     96.000     23.020   1263.1941 
4    144.000     15.810    138.000     16.190     96.000     23.020    102.000     21.160    464.3350 
4    156.000     15.100    150.000     15.430    108.000     19.720    114.000     18.730    167.7446 
4    186.000      8.590    180.000     10.770    138.000     16.190    144.000     15.810     88.0381 
4    192.000      6.410    186.000      8.590    144.000     15.810    150.000     15.430     74.7518 
4    198.000      4.400    192.000      6.410    150.000     15.430    156.000     15.100     71.7301 
4    204.000      2.960    198.000      4.400    156.000     15.100    162.000     14.760     73.3433 
4    210.000      2.010    204.000      2.960    162.000     14.760    168.000     13.620    113.4030 
4    216.000      1.070    210.000      2.010    168.000     13.620    174.000     12.470    112.3991 
4    228.000      0.190    222.000      0.410    180.000     10.770    186.000      8.590    312.6470 
4    234.000      0.000    228.000      0.190    186.000      8.590    192.000      6.410    442.0071 
4    240.000      0.000    234.000      0.000    192.000      6.410    198.000      4.400    378.9329 
4     60.000     33.290     48.000     33.480      0.000     38.050     12.000     38.410    100.6614 
4     66.000     31.550     54.000     33.390      6.000     38.230     18.000     38.590     90.3078 
4     72.000     28.980     60.000     33.290     12.000     38.410     24.000     38.770     90.3012 
4     78.000     27.560     66.000     31.550     18.000     38.590     30.000     38.960    109.8252 
4     84.000     26.310     72.000     28.980     24.000     38.770     36.000     36.830    102.6901 
4     90.000     24.880     78.000     27.560     30.000     38.960     42.000     34.650     86.6780 
4     96.000     23.020     84.000     26.310     36.000     36.830     48.000     33.480     69.3228 
4    102.000     21.160     90.000     24.880     42.000     34.650     54.000     33.390     79.1455 
4    186.000      8.590    174.000     12.470    126.000     17.230    138.000     16.190     92.8158 
4    192.000      6.410    180.000     10.770    132.000     16.570    144.000     15.810     99.9713 
4    198.000      4.400    186.000      8.590    138.000     16.190    150.000     15.430     69.2701 
4    204.000      2.960    192.000      6.410    144.000     15.810    156.000     15.100     58.6647 
4    210.000      2.010    198.000      4.400    150.000     15.430    162.000     14.760    102.9833 
4    216.000      1.070    204.000      2.960    156.000     15.100    168.000     13.620    126.1160 
4    222.000      0.410    210.000      2.010    162.000     14.760    174.000     12.470    136.7682 
4    228.000      0.190    216.000      1.070    168.000     13.620    180.000     10.770    154.1530 
4    234.000      0.000    222.000      0.410    174.000     12.470    186.000      8.590    332.7097 
4    240.000      0.000    228.000      0.190    180.000     10.770    192.000      6.410    549.8702 
4     54.000     33.390     48.000     33.480      0.000     38.050      6.000     38.230    123.6343 
4     60.000     33.290     54.000     33.390      6.000     38.230     12.000     38.410     92.9200 
4     66.000     31.550     60.000     33.290     12.000     38.410     18.000     38.590     87.0019 
4     72.000     28.980     66.000     31.550     18.000     38.590     24.000     38.770    111.9824 
4     78.000     27.560     72.000     28.980     24.000     38.770     30.000     38.960     88.2230 
4     84.000     26.310     78.000     27.560     30.000     38.960     36.000     36.830    115.6304 
4     90.000     24.880     84.000     26.310     36.000     36.830     42.000     34.650     64.8109 
4     96.000     23.020     90.000     24.880     42.000     34.650     48.000     33.480     71.2857 
4    102.000     21.160     96.000     23.020     48.000     33.480     54.000     33.390     89.5300 
4    186.000      8.590    180.000     10.770    132.000     16.570    138.000     16.190     90.7886 
4    192.000      6.410    186.000      8.590    138.000     16.190    144.000     15.810    101.2605 
4    198.000      4.400    192.000      6.410    144.000     15.810    150.000     15.430     44.3273 
4    204.000      2.960    198.000      4.400    150.000     15.430    156.000     15.100     65.5766 
4    210.000      2.010    204.000      2.960    156.000     15.100    162.000     14.760    138.0157 
4    216.000      1.070    210.000      2.010    162.000     14.760    168.000     13.620    119.7383 
4    222.000      0.410    216.000      1.070    168.000     13.620    174.000     12.470     92.2213 
4    228.000      0.190    222.000      0.410    174.000     12.470    180.000     10.770    165.5624 
4    234.000      0.000    228.000      0.190    180.000     10.770    186.000      8.590    551.1802 
4    240.000      0.000    234.000      0.000    186.000      8.590    192.000      6.410    597.4756 
4     90.000     24.880     60.000     33.290      0.000     38.050     30.000     38.960    113.7578 
4     96.000     23.020     66.000     31.550      6.000     38.230     36.000     36.830    122.2469 
4    102.000     21.160     72.000     28.980     12.000     38.410     42.000     34.650     93.5863 
4    108.000     19.720     78.000     27.560     18.000     38.590     48.000     33.480     87.9009 
4    114.000     18.730     84.000     26.310     24.000     38.770     54.000     33.390     86.4918 
4    120.000     17.900     90.000     24.880     30.000     38.960     60.000     33.290     78.2978 
4    126.000     17.230     96.000     23.020     36.000     36.830     66.000     31.550     89.1727 
4    132.000     16.570    102.000     21.160     42.000     34.650     72.000     28.980    129.1080 
4    138.000     16.190    108.000     19.720     48.000     33.480     78.000     27.560    188.4954 
4    144.000     15.810    114.000     18.730     54.000     33.390     84.000     26.310    279.7440 
4    150.000     15.430    120.000     17.900     60.000     33.290     90.000     24.880    350.2658 
4    156.000     15.100    126.000     17.230     66.000     31.550     96.000     23.020    415.6214 
4    162.000     14.760    132.000     16.570     72.000     28.980    102.000     21.160    370.8343 
4    168.000     13.620    138.000     16.190     78.000     27.560    108.000     19.720    319.7301 
4    174.000     12.470    144.000     15.810     84.000     26.310    114.000     18.730    185.3128 
4    186.000      8.590    156.000     15.100     96.000     23.020    126.000     17.230    117.7332 
4    192.000      6.410    162.000     14.760    102.000     21.160    132.000     16.570    103.7385 
4    198.000      4.400    168.000     13.620    108.000     19.720    138.000     16.190     90.1222 
4    204.000      2.960    174.000     12.470    114.000     18.730    144.000     15.810     95.8879 
4    210.000      2.010    180.000     10.770    120.000     17.900    150.000     15.430     88.5343 
4    216.000      1.070    186.000      8.590    126.000     17.230    156.000     15.100     97.2083 
4    222.000      0.410    192.000      6.410    132.000     16.570    162.000     14.760    102.1637 
4    228.000      0.190    198.000      4.400    138.000     16.190    168.000     13.620    131.2438 
4    234.000      0.000    204.000      2.960    144.000     15.810    174.000     12.470    152.4722 
4    240.000      0.000    210.000      2.010    150.000     15.430    180.000     10.770    197.7275 
4     72.000     28.980     54.000     33.390      0.000     38.050     18.000     38.590    113.0450 
4     78.000     27.560     60.000     33.290      6.000     38.230     24.000     38.770    106.3082 
4     84.000     26.310     66.000     31.550     12.000     38.410     30.000     38.960    113.1664 
4     90.000     24.880     72.000     28.980     18.000     38.590     36.000     36.830    100.6117 
4     96.000     23.020     78.000     27.560     24.000     38.770     42.000     34.650     95.1373 
4    102.000     21.160     84.000     26.310     30.000     38.960     48.000     33.480     80.9600 
4    108.000     19.720     90.000     24.880     36.000     36.830     54.000     33.390     76.6588 
4    120.000     17.900    102.000     21.160     48.000     33.480     66.000     31.550     81.9252 
4    126.000     17.230    108.000     19.720     54.000     33.390     72.000     28.980    137.0645 
4    138.000     16.190    120.000     17.900     66.000     31.550     84.000     26.310    269.5743 
4    168.000     13.620    150.000     15.430     96.000     23.020    114.000     18.730    119.0956 
4    192.000      6.410    174.000     12.470    120.000     17.900    138.000     16.190     95.3272 
4    198.000      4.400    180.000     10.770    126.000     17.230    144.000     15.810     94.6239 
4    204.000      2.960    186.000      8.590    132.000     16.570    150.000     15.430     77.1516 
4    210.000      2.010    192.000      6.410    138.000     16.190    156.000     15.100     82.2684 
4    216.000      1.070    198.000      4.400    144.000     15.810    162.000     14.760    108.1655 
4    222.000      0.410    204.000      2.960    150.000     15.430    168.000     13.620    149.9766 
4    228.000      0.190    210.000      2.010    156.000     15.100    174.000     12.470    147.8445 
4    234.000      0.000    216.000      1.070    162.000     14.760    180.000     10.770    199.4766 
4    240.000      0.000    222.000      0.410    168.000     13.620    186.000      8.590    348.0756 
4     60.000     33.290     54.000     33.390      0.000     38.050      6.000     38.230     97.0471 
4     66.000     31.550     60.000     33.290      6.000     38.230     12.000     38.410    126.3150 
4     72.000     28.980     66.000     31.550     12.000     38.410     18.000     38.590    129.3711 
4     78.000     27.560     72.000     28.980     18.000     38.590     24.000     38.770     86.3129 
4     84.000     26.310     78.000     27.560     24.000     38.770     30.000     38.960    111.6275 
4     90.000     24.880     84.000     26.310     30.000     38.960     36.000     36.830    103.0696 
4     96.000     23.020     90.000     24.880     36.000     36.830     42.000     34.650     67.7755 
4    102.000     21.160     96.000     23.020     42.000     34.650     48.000     33.480     72.8517 
4    108.000     19.720    102.000     21.160     48.000     33.480     54.000     33.390     77.8675 
4    186.000      8.590    180.000     10.770    126.000     17.230    132.000     16.570    128.2011 
4    192.000      6.410    186.000      8.590    132.000     16.570    138.000     16.190    158.7927 
4    198.000      4.400    192.000      6.410    138.000     16.190    144.000     15.810     68.9805 
4    204.000      2.960    198.000      4.400    144.000     15.810    150.000     15.430     51.4881 
4    210.000      2.010    204.000      2.960    150.000     15.430    156.000     15.100    146.7818 
4    216.000      1.070    210.000      2.010    156.000     15.100    162.000     14.760    152.2620 
4    222.000      0.410    216.000      1.070    162.000     14.760    168.000     13.620    256.3731 
4    228.000      0.190    222.000      0.410    168.000     13.620    174.000     12.470    135.9964 
4    234.000      0.000    228.000      0.190    174.000     12.470    180.000     10.770    295.2899 
4    240.000      0.000    234.000      0.000    180.000     10.770    186.000      8.590    697.4704 
4     72.000     28.980     60.000     33.290      0.000     38.050     12.000     38.410    156.2413 
4     78.000     27.560     66.000     31.550      6.000     38.230     18.000     38.590    138.3357 
4     84.000     26.310     72.000     28.980     12.000     38.410     24.000     38.770     97.6265 
4     90.000     24.880     78.000     27.560     18.000     38.590     30.000     38.960    109.8324 
4     96.000     23.020     84.000     26.310     24.000     38.770     36.000     36.830    121.8746 
4    102.000     21.160     90.000     24.880     30.000     38.960     42.000     34.650     99.1484 
4    108.000     19.720     96.000     23.020     36.000     36.830     48.000     33.480     74.1394 
4    114.000     18.730    102.000     21.160     42.000     34.650     54.000     33.390     77.3708 
4    138.000     16.190    126.000     17.230     66.000     31.550     78.000     27.560    207.6802 
4    168.000     13.620    156.000     15.100     96.000     23.020    108.000     19.720    146.0028 
4    186.000      8.590    174.000     12.470    114.000     18.730    126.000     17.230    102.1649 
4    192.000      6.410    180.000     10.770    120.000     17.900    132.000     16.570    107.0778 
4    198.000      4.400    186.000      8.590    126.000     17.230    138.000     16.190     97.9993 
4    204.000      2.960    192.000      6.410    132.000     16.570    144.000     15.810     85.1750 
4    210.000      2.010    198.000      4.400    138.000     16.190    150.000     15.430    100.7019 
4    216.000      1.070    204.000      2.960    144.000     15.810    156.000     15.100    136.9767 
4    222.000      0.410    210.000      2.010    150.000     15.430    162.000     14.760    153.4636 
4    228.000      0.190    216.000      1.070    156.000     15.100    168.000     13.620    214.6235 
4    234.000      0.000    222.000      0.410    162.000     14.760    174.000     12.470    217.5074 
4    240.000      0.000    228.000      0.190    168.000     13.620    180.000     10.770    316.3780 
4     96.000     23.020     72.000     28.980      0.000     38.050     24.000     38.770    126.0241 
4    102.000     21.160     78.000     27.560      6.000     38.230     30.000     38.960    124.7026 
4    108.000     19.720     84.000     26.310     12.000     38.410     36.000     36.830    120.4177 
4    114.000     18.730     90.000     24.880     18.000     38.590     42.000     34.650    105.5898 
4    120.000     17.900     96.000     23.020     24.000     38.770     48.000     33.480     95.2936 
4    126.000     17.230    102.000     21.160     30.000     38.960     54.000     33.390     88.6576 
4    138.000     16.190    114.000     18.730     42.000     34.650     66.000     31.550    150.9554 
4    150.000     15.430    126.000     17.230     54.000     33.390     78.000     27.560    142.8988 
4    168.000     13.620    144.000     15.810     72.000     28.980     96.000     23.020    254.0311 
4    186.000      8.590    162.000     14.760     90.000     24.880    114.000     18.730    114.6376 
4    192.000      6.410    168.000     13.620     96.000     23.020    120.000     17.900    167.0728 
4    198.000      4.400    174.000     12.470    102.000     21.160    126.000     17.230    109.5231 
4    204.000      2.960    180.000     10.770    108.000     19.720    132.000     16.570    116.5579 
4    210.000      2.010    186.000      8.590    114.000     18.730    138.000     16.190    118.1480 
4    216.000      1.070    192.000      6.410    120.000     17.900    144.000     15.810    119.3115 
4    222.000      0.410    198.000      4.400    126.000     17.230    150.000     15.430    138.1166 
4    228.000      0.190    204.000      2.960    132.000     16.570    156.000     15.100    166.6821 
4    234.000      0.000    210.000      2.010    138.000     16.190    162.000     14.760    202.7772 
4    240.000      0.000    216.000      1.070    144.000     15.810    168.000     13.620    283.0998 
4     90.000     24.880     72.000     28.980      0.000     38.050     18.000     38.590    141.3636 
4     96.000     23.020     78.000     27.560      6.000     38.230     24.000     38.770    125.6992 
4    102.000     21.160     84.000     26.310     12.000     38.410     30.000     38.960    119.8624 
4    108.000     19.720     90.000     24.880     18.000     38.590     36.000     36.830    121.9551 
4    114.000     18.730     96.000     23.020     24.000     38.770     42.000     34.650    101.9990 
4    120.000     17.900    102.000     21.160     30.000     38.960     48.000     33.480     91.9994 
4    126.000     17.230    108.000     19.720     36.000     36.830     54.000     33.390     86.3407 
4    138.000     16.190    120.000     17.900     48.000     33.480     66.000     31.550    109.5771 
4    144.000     15.810    126.000     17.230     54.000     33.390     72.000     28.980    128.7952 
4    150.000     15.430    132.000     16.570     60.000     33.290     78.000     27.560    126.9715 
4    156.000     15.100    138.000     16.190     66.000     31.550     84.000     26.310    161.7710 
4    168.000     13.620    150.000     15.430     78.000     27.560     96.000     23.020    164.8019 
4    174.000     12.470    156.000     15.100     84.000     26.310    102.000     21.160    145.1644 
4    186.000      8.590    168.000     13.620     96.000     23.020    114.000     18.730    103.8139 
4    192.000      6.410    174.000     12.470    102.000     21.160    120.000     17.900    126.2336 
4    198.000      4.400    180.000     10.770    108.000     19.720    126.000     17.230    123.3913 
4    204.000      2.960    186.000      8.590    114.000     18.730    132.000     16.570    107.3313 
4    210.000      2.010    192.000      6.410    120.000     17.900    138.000     16.190    111.5606 
4    216.000      1.070    198.000      4.400    126.000     17.230    144.000     15.810    148.2581 
4    222.000      0.410    204.000      2.960    132.000     16.570    150.000     15.430    158.4385 
4    228.000      0.190    210.000      2.010    138.000     16.190    156.000     15.100    167.8695 
4    234.000      0.000    216.000      1.070    144.000     15.810    162.000     14.760    224.7738 
4    240.000      0.000    222.000      0.410    150.000     15.430    168.000     13.620    346.1355 
4     84.000     26.310     72.000     28.980      0.000     38.050     12.000     38.410    157.3530 
4     90.000     24.880     78.000     27.560      6.000     38.230     18.000     38.590    139.6003 
4     96.000     23.020     84.000     26.310     12.000     38.410     24.000     38.770    125.7459 
4    102.000     21.160     90.000     24.880     18.000     38.590     30.000     38.960    124.7096 
4    108.000     19.720     96.000     23.020     24.000     38.770     36.000     36.830    129.4439 
4    114.000     18.730    102.000     21.160     30.000     38.960     42.000     34.650     92.4462 
4    120.000     17.900    108.000     19.720     36.000     36.830     48.000     33.480     77.3580 
4    126.000     17.230    114.000     18.730     42.000     34.650     54.000     33.390     84.0140 
4    138.000     16.190    126.000     17.230     54.000     33.390     66.000     31.550     95.5544 
4    144.000     15.810    132.000     16.570     60.000     33.290     72.000     28.980    132.6858 
4    150.000     15.430    138.000     16.190     66.000     31.550     78.000     27.560    113.8952 
4    156.000     15.100    144.000     15.810     72.000     28.980     84.000     26.310    163.8028 
4    162.000     14.760    150.000     15.430     78.000     27.560     90.000     24.880    163.3342 
4    168.000     13.620    156.000     15.100     84.000     26.310     96.000     23.020    144.7740 
4    186.000      8.590    174.000     12.470    102.000     21.160    114.000     18.730    111.7213 
4    192.000      6.410    180.000     10.770    108.000     19.720    120.000     17.900    148.4917 
4    198.000      4.400    186.000      8.590    114.000     18.730    126.000     17.230    108.2149 
4    204.000      2.960    192.000      6.410    120.000     17.900    132.000     16.570     85.0210 
4    210.000      2.010    198.000      4.400    126.000     17.230    138.000     16.190    143.6268 
4    216.000      1.070    204.000      2.960    132.000     16.570    144.000     15.810    177.3216 
4    222.000      0.410    210.000      2.010    138.000     16.190    150.000     15.430    150.1669 
4    228.000      0.190    216.000      1.070    144.000     15.810    156.000     15.100    171.5360 
4    234.000      0.000    222.000      0.410    150.000     15.430    162.000     14.760    301.0186 
4    240.000      0.000    228.000      0.190    156.000     15.100    168.000     13.620    449.1248 
4     96.000     23.020     84.000     26.310      0.000     38.050     12.000     38.410    178.1093 
4    102.000     21.160     90.000     24.880      6.000     38.230     18.000     38.590    168.5851 
4    108.000     19.720     96.000     23.020     12.000     38.410     24.000     38.770    125.3005 
4    114.000     18.730    102.000     21.160     18.000     38.590     30.000     38.960    118.0238 
4    120.000     17.900    108.000     19.720     24.000     38.770     36.000     36.830    130.8162 
4    126.000     17.230    114.000     18.730     30.000     38.960     42.000     34.650    107.2401 
4    132.000     16.570    120.000     17.900     36.000     36.830     48.000     33.480     77.8425 
4    138.000     16.190    126.000     17.230     42.000     34.650     54.000     33.390     89.5953 
4    144.000     15.810    132.000     16.570     48.000     33.480     60.000     33.290    116.1269 
4    150.000     15.430    138.000     16.190     54.000     33.390     66.000     31.550     87.4101 
4    156.000     15.100    144.000     15.810     60.000     33.290     72.000     28.980    104.3238 
4    162.000     14.760    150.000     15.430     66.000     31.550     78.000     27.560    133.9386 
4    168.000     13.620    156.000     15.100     72.000     28.980     84.000     26.310    131.9600 
4    186.000      8.590    174.000     12.470     90.000     24.880    102.000     21.160    130.6743 
4    192.000      6.410    180.000     10.770     96.000     23.020    108.000     19.720    145.5376 
4    198.000      4.400    186.000      8.590    102.000     21.160    114.000     18.730    124.0807 
4    204.000      2.960    192.000      6.410    108.000     19.720    120.000     17.900    137.9058 
4    210.000      2.010    198.000      4.400    114.000     18.730    126.000     17.230    151.1326 
4    216.000      1.070    204.000      2.960    120.000     17.900    132.000     16.570    180.1981 
4    222.000      0.410    210.000      2.010    126.000     17.230    138.000     16.190    211.2852 
4    228.000      0.190    216.000      1.070    132.000     16.570    144.000     15.810    231.5446 
4    234.000      0.000    222.000      0.410    138.000     16.190    150.000     15.430    258.2148 
4    240.000      0.000    228.000      0.190    144.000     15.810    156.000     15.100    389.1158 
4    120.000     17.900     90.000     24.880      0.000     38.050     30.000     38.960    143.7401 
4    126.000     17.230     96.000     23.020      6.000     38.230     36.000     36.830    135.6940 
4    132.000     16.570    102.000     21.160     12.000     38.410     42.000     34.650    115.5568 
4    138.000     16.190    108.000     19.720     18.000     38.590     48.000     33.480    109.1263 
4    144.000     15.810    114.000     18.730     24.000     38.770     54.000     33.390    108.3687 
4    150.000     15.430    120.000     17.900     30.000     38.960     60.000     33.290    129.1558 
4    156.000     15.100    126.000     17.230     36.000     36.830     66.000     31.550     92.7419 
4    162.000     14.760    132.000     16.570     42.000     34.650     72.000     28.980    107.8813 
4    168.000     13.620    138.000     16.190     48.000     33.480     78.000     27.560    109.8693 
4    174.000     12.470    144.000     15.810     54.000     33.390     84.000     26.310    118.7447 
4    180.000     10.770    150.000     15.430     60.000     33.290     90.000     24.880    117.1946 
4    186.000      8.590    156.000     15.100     66.000     31.550     96.000     23.020    134.4408 
4    192.000      6.410    162.000     14.760     72.000     28.980    102.000     21.160    135.7754 
4    198.000      4.400    168.000     13.620     78.000     27.560    108.000     19.720    123.3281 
4    204.000      2.960    174.000     12.470     84.000     26.310    114.000     18.730    134.7731 
4    210.000      2.010    180.000     10.770     90.000     24.880    120.000     17.900    157.3299 
4    216.000      1.070    186.000      8.590     96.000     23.020    126.000     17.230    149.7583 
4    222.000      0.410    192.000      6.410    102.000     21.160    132.000     16.570    158.3483 
4    228.000      0.190    198.000      4.400    108.000     19.720    138.000     16.190    188.8278 
4    234.000      0.000    204.000      2.960    114.000     18.730    144.000     15.810    236.9819 
4    240.000      0.000    210.000      2.010    120.000     17.900    150.000     15.430    269.7326 
4    108.000     19.720     90.000     24.880      0.000     38.050     18.000     38.590    171.8426 
4    114.000     18.730     96.000     23.020      6.000     38.230     24.000     38.770    142.4511 
4    120.000     17.900    102.000     21.160     12.000     38.410     30.000     38.960    126.3361 
4    126.000     17.230    108.000     19.720     18.000     38.590     36.000     36.830    136.8975 
4    132.000     16.570    114.000     18.730     24.000     38.770     42.000     34.650    118.4781 
4    138.000     16.190    120.000     17.900     30.000     38.960     48.000     33.480    107.2902 
4    144.000     15.810    126.000     17.230     36.000     36.830     54.000     33.390     94.0436 
4    150.000     15.430    132.000     16.570     42.000     34.650     60.000     33.290    101.0045 
4    156.000     15.100    138.000     16.190     48.000     33.480     66.000     31.550     93.4668 
4    162.000     14.760    144.000     15.810     54.000     33.390     72.000     28.980     98.5107 
4    168.000     13.620    150.000     15.430     60.000     33.290     78.000     27.560    122.2367 
4    174.000     12.470    156.000     15.100     66.000     31.550     84.000     26.310    119.8990 
4    180.000     10.770    162.000     14.760     72.000     28.980     90.000     24.880    110.4979 
4    186.000      8.590    168.000     13.620     78.000     27.560     96.000     23.020    124.4971 
4    192.000      6.410    174.000     12.470     84.000     26.310    102.000     21.160    151.1851 
4    198.000      4.400    180.000     10.770     90.000     24.880    108.000     19.720    140.9534 
4    204.000      2.960    186.000      8.590     96.000     23.020    114.000     18.730    135.0511 
4    210.000      2.010    192.000      6.410    102.000     21.160    120.000     17.900    159.5724 
4    216.000      1.070    198.000      4.400    108.000     19.720    126.000     17.230    172.1859 
4    222.000      0.410    204.000      2.960    114.000     18.730    132.000     16.570    197.9219 
4    228.000      0.190    210.000      2.010    120.000     17.900    138.000     16.190    217.7732 
4    234.000      0.000    216.000      1.070    126.000     17.230    144.000     15.810    289.1813 
4    240.000      0.000    222.000      0.410    132.000     16.570    150.000     15.430    344.9948 
4    120.000     17.900     96.000     23.020      0.000     38.050     24.000     38.770    154.2132 
4    126.000     17.230    102.000     21.160      6.000     38.230     30.000     38.960    138.4709 
4    132.000     16.570    108.000     19.720     12.000     38.410     36.000     36.830    134.4058 
4    138.000     16.190    114.000     18.730     18.000     38.590     42.000     34.650    128.9975 
4    144.000     15.810    120.000     17.900     24.000     38.770     48.000     33.480    111.1426 
4    150.000     15.430    126.000     17.230     30.000     38.960     54.000     33.390    102.2852 
4    156.000     15.100    132.000     16.570     36.000     36.830     60.000     33.290    100.1490 
4    162.000     14.760    138.000     16.190     42.000     34.650     66.000     31.550     88.0169 
4    168.000     13.620    144.000     15.810     48.000     33.480     72.000     28.980    111.4900 
4    174.000     12.470    150.000     15.430     54.000     33.390     78.000     27.560    116.0514 
4    180.000     10.770    156.000     15.100     60.000     33.290     84.000     26.310    126.5274 
4    186.000      8.590    162.000     14.760     66.000     31.550     90.000     24.880    132.8609 
4    192.000      6.410    168.000     13.620     72.000     28.980     96.000     23.020    136.0710 
4    198.000      4.400    174.000     12.470     78.000     27.560    102.000     21.160    145.8589 
4    204.000      2.960    180.000     10.770     84.000     26.310    108.000     19.720    149.4061 
4    210.000      2.010    186.000      8.590     90.000     24.880    114.000     18.730    158.3521 
4    216.000      1.070    192.000      6.410     96.000     23.020    120.000     17.900    173.1330 
4    222.000      0.410    198.000      4.400    102.000     21.160    126.000     17.230    189.6145 
4    228.000      0.190    204.000      2.960    108.000     19.720    132.000     16.570    217.0048 
4    234.000      0.000    210.000      2.010    114.000     18.730    138.000     16.190    270.5515 
4    240.000      0.000    216.000      1.070    120.000     17.900    144.000     15.810    355.0293 
4    126.000     17.230    108.000     19.720      0.000     38.050     18.000     38.590    172.2786 
4    132.000     16.570    114.000     18.730      6.000     38.230     24.000     38.770    149.3095 
4    138.000     16.190    120.000     17.900     12.000     38.410     30.000     38.960    133.9620 
4    144.000     15.810    126.000     17.230     18.000     38.590     36.000     36.830    150.4567 
4    150.000     15.430    132.000     16.570     24.000     38.770     42.000     34.650    123.9405 
4    156.000     15.100    138.000     16.190     30.000     38.960     48.000     33.480    104.8208 
4    162.000     14.760    144.000     15.810     36.000     36.830     54.000     33.390     90.9736 
4    168.000     13.620    150.000     15.430     42.000     34.650     60.000     33.290    110.9024 
4    174.000     12.470    156.000     15.100     48.000     33.480     66.000     31.550    101.6866 
4    186.000      8.590    168.000     13.620     60.000     33.290     78.000     27.560    129.4173 
4    198.000      4.400    180.000     10.770     72.000     28.980     90.000     24.880    158.7182 
4    204.000      2.960    186.000      8.590     78.000     27.560     96.000     23.020    166.7411 
4    210.000      2.010    192.000      6.410     84.000     26.310    102.000     21.160    183.4757 
4    216.000      1.070    198.000      4.400     90.000     24.880    108.000     19.720    219.3436 
4    222.000      0.410    204.000      2.960     96.000     23.020    114.000     18.730    248.7550 
4    228.000      0.190    210.000      2.010    102.000     21.160    120.000     17.900    265.8885 
4    234.000      0.000    216.000      1.070    108.000     19.720    126.000     17.230    324.1009 
4    240.000      0.000    222.000      0.410    114.000     18.730    132.000     16.570    434.3409 
4    150.000     15.430    120.000     17.900      0.000     38.050     30.000     38.960    156.0528 
4    156.000     15.100    126.000     17.230      6.000     38.230     36.000     36.830    154.7279 
4    162.000     14.760    132.000     16.570     12.000     38.410     42.000     34.650    145.9391 
4    168.000     13.620    138.000     16.190     18.000     38.590     48.000     33.480    129.2194 
4    174.000     12.470    144.000     15.810     24.000     38.770     54.000     33.390    118.2936 
4    186.000      8.590    156.000     15.100     36.000     36.830     66.000     31.550    116.7690 
4    222.000      0.410    192.000      6.410     72.000     28.980    102.000     21.160    226.3326 
4    228.000      0.190    198.000      4.400     78.000     27.560    108.000     19.720    263.8227 
4    234.000      0.000    204.000      2.960     84.000     26.310    114.000     18.730    330.4761 
4    240.000      0.000    210.000      2.010     90.000     24.880    120.000     17.900    397.3941 
4    144.000     15.810    120.000     17.900      0.000     38.050     24.000     38.770    162.4910 
4    150.000     15.430    126.000     17.230      6.000     38.230     30.000     38.960    150.5995 
4    156.000     15.100    132.000     16.570     12.000     38.410     36.000     36.830    154.2675 
4    162.000     14.760    138.000     16.190     18.000     38.590     42.000     34.650    136.3701 
4    168.000     13.620    144.000     15.810     24.000     38.770     48.000     33.480    125.6819 
4    174.000     12.470    150.000     15.430     30.000     38.960     54.000     33.390    122.3252 
4    180.000     10.770    156.000     15.100     36.000     36.830     60.000     33.290     98.4888 
4    186.000      8.590    162.000     14.760     42.000     34.650     66.000     31.550    119.6850 
4    216.000      1.070    192.000      6.410     72.000     28.980     96.000     23.020    214.7718 
4    222.000      0.410    198.000      4.400     78.000     27.560    102.000     21.160    263.6489 
4    228.000      0.190    204.000      2.960     84.000     26.310    108.000     19.720    291.2826 
4    234.000      0.000    210.000      2.010     90.000     24.880    114.000     18.730    353.9748 
4    240.000      0.000    216.000      1.070     96.000     23.020    120.000     17.900    435.5777 
4    168.000     13.620    144.000     15.810      0.000     38.050     24.000     38.770    189.3005 
4    174.000     12.470    150.000     15.430      6.000     38.230     30.000     38.960    178.5178 
4    180.000     10.770    150.000     15.430      0.000     38.050     30.000     38.960    191.1741 
Topography in a separate list
2
17
0 38.05
30.14 38.96
45.07 33.53
62 33.26
72.77 28.65
88.18 25.44
102.5 21
108.4 19.63
117.2 18.21
132.06 16.56
150.15 15.42
162.06 14.76
176.79 11.94
191.93 6.43
200.8 3.47
219.51 0.51
232.86 0
0
0
0
0
0
0
0
