Project10	Gradient	XL_1							
    3.00000
11
14
Type of resistivity data (1=resistance,0=resistivity)
0
1433
2
0
4      0.000     38.050     27.000     38.865      3.000     38.141      6.000     38.231    138.1671 
4      0.000     38.050     27.000     38.865     21.000     38.684     24.000     38.775     69.5912 
4      3.000     38.141     30.000     38.956      6.000     38.231      9.000     38.322    106.2720 
4      3.000     38.141     30.000     38.956     24.000     38.775     27.000     38.865     58.2193 
4      6.000     38.231     33.000     37.920     27.000     38.865     30.000     38.956     88.8427 
4      6.000     38.231     33.000     37.920      9.000     38.322     12.000     38.412     79.8503 
4      9.000     38.322     36.000     36.829     30.000     38.956     33.000     37.920     58.2030 
4      9.000     38.322     36.000     36.829     12.000     38.412     15.000     38.503     74.6998 
4     12.000     38.412     39.000     35.738     15.000     38.503     18.000     38.593     60.4841 
4     12.000     38.412     39.000     35.738     33.000     37.920     36.000     36.829     60.7436 
4     15.000     38.503     42.000     34.647     18.000     38.593     21.000     38.684     53.3910 
4     15.000     38.503     42.000     34.647     36.000     36.829     39.000     35.738     38.0400 
4     18.000     38.593     45.000     33.556     21.000     38.684     24.000     38.775     53.6065 
4     18.000     38.593     45.000     33.556     39.000     35.738     42.000     34.647     36.8079 
4     21.000     38.684     48.000     33.483     24.000     38.775     27.000     38.865     47.1092 
4     21.000     38.684     48.000     33.483     42.000     34.647     45.000     33.556     41.3793 
4     24.000     38.775     51.000     33.435     45.000     33.556     48.000     33.483     95.7749 
4     24.000     38.775     51.000     33.435     27.000     38.865     30.000     38.956     80.2317 
4     27.000     38.865     54.000     33.388     48.000     33.483     51.000     33.435    204.2698 
4     27.000     38.865     54.000     33.388     30.000     38.956     33.000     37.920     65.3667 
4     30.000     38.956     57.000     33.340     33.000     37.920     36.000     36.829     86.1950 
4     30.000     38.956     57.000     33.340     51.000     33.435     54.000     33.388    214.6869 
4     33.000     37.920     60.000     33.292     54.000     33.388     57.000     33.340    308.5916 
4     33.000     37.920     60.000     33.292     36.000     36.829     39.000     35.738     51.1088 
4     36.000     36.829     63.000     32.832     57.000     33.340     60.000     33.292    424.4468 
4     36.000     36.829     63.000     32.832     39.000     35.738     42.000     34.647     53.8230 
4     39.000     35.738     66.000     31.548     60.000     33.292     63.000     32.832    666.8105 
4     39.000     35.738     66.000     31.548     42.000     34.647     45.000     33.556     40.5213 
4     42.000     34.647     69.000     30.264     63.000     32.832     66.000     31.548    649.7866 
4     42.000     34.647     69.000     30.264     45.000     33.556     48.000     33.483     39.0727 
4     45.000     33.556     72.000     28.980     48.000     33.483     51.000     33.435     43.9465 
4     45.000     33.556     72.000     28.980     66.000     31.548     69.000     30.264   1425.5542 
4     48.000     33.483     75.000     28.185     51.000     33.435     54.000     33.388     88.0717 
4     48.000     33.483     75.000     28.185     69.000     30.264     72.000     28.980   1228.2163 
4     51.000     33.435     78.000     27.561     72.000     28.980     75.000     28.185   1536.3750 
4     51.000     33.435     78.000     27.561     54.000     33.388     57.000     33.340    173.1314 
4     54.000     33.388     81.000     26.936     75.000     28.185     78.000     27.561    812.8329 
4     54.000     33.388     81.000     26.936     57.000     33.340     60.000     33.292    173.5518 
4     57.000     33.340     84.000     26.311     78.000     27.561     81.000     26.936   1494.4688 
4     57.000     33.340     84.000     26.311     60.000     33.292     63.000     32.832    188.1286 
4     60.000     33.292     87.000     25.686     81.000     26.936     84.000     26.311   1754.2057 
4     60.000     33.292     87.000     25.686     63.000     32.832     66.000     31.548    423.8571 
4     63.000     32.832     90.000     24.876     66.000     31.548     69.000     30.264    797.8256 
4     63.000     32.832     90.000     24.876     84.000     26.311     87.000     25.686   1846.2263 
4     66.000     31.548     93.000     23.945     87.000     25.686     90.000     24.876   1721.2682 
4     66.000     31.548     93.000     23.945     69.000     30.264     72.000     28.980    571.4883 
4     69.000     30.264     96.000     23.015     72.000     28.980     75.000     28.185   1137.6152 
4     69.000     30.264     96.000     23.015     90.000     24.876     93.000     23.945   1700.5970 
4     72.000     28.980     99.000     22.085     93.000     23.945     96.000     23.015   1733.4000 
4     72.000     28.980     99.000     22.085     75.000     28.185     78.000     27.561   1187.7076 
4     75.000     28.185    102.000     21.155     96.000     23.015     99.000     22.085   2069.3057 
4     75.000     28.185    102.000     21.155     78.000     27.561     81.000     26.936   1647.6364 
4     78.000     27.561    105.000     20.420     99.000     22.085    102.000     21.155   2169.7856 
4     78.000     27.561    105.000     20.420     81.000     26.936     84.000     26.311    819.5413 
4     81.000     26.936    108.000     19.723     84.000     26.311     87.000     25.686   1241.7058 
4     81.000     26.936    108.000     19.723    102.000     21.155    105.000     20.420   1997.4357 
4     84.000     26.311    111.000     19.211    105.000     20.420    108.000     19.723   2848.8916 
4     84.000     26.311    111.000     19.211     87.000     25.686     90.000     24.876   1471.2898 
4     87.000     25.686    114.000     18.726    108.000     19.723    111.000     19.211   1425.1501 
4     87.000     25.686    114.000     18.726     90.000     24.876     93.000     23.945   1785.7092 
4     90.000     24.876    117.000     18.242    111.000     19.211    114.000     18.726   2454.7219 
4     90.000     24.876    117.000     18.242     93.000     23.945     96.000     23.015   1748.7677 
4     93.000     23.945    120.000     17.899     96.000     23.015     99.000     22.085   1717.8649 
4     93.000     23.945    120.000     17.899    114.000     18.726    117.000     18.242   2089.3291 
4     96.000     23.015    123.000     17.566     99.000     22.085    102.000     21.155   1750.2163 
4     96.000     23.015    123.000     17.566    117.000     18.242    120.000     17.899   1768.2195 
4     99.000     22.085    126.000     17.233    120.000     17.899    123.000     17.566   1376.6338 
4     99.000     22.085    126.000     17.233    102.000     21.155    105.000     20.420   1953.4838 
4    102.000     21.155    129.000     16.900    123.000     17.566    126.000     17.233   1008.8896 
4    102.000     21.155    129.000     16.900    105.000     20.420    108.000     19.723   2143.3308 
4    105.000     20.420    132.000     16.567    108.000     19.723    111.000     19.211   1595.4836 
4    105.000     20.420    132.000     16.567    126.000     17.233    129.000     16.900   1092.1381 
4    108.000     19.723    135.000     16.375    129.000     16.900    132.000     16.567   1231.9580 
4    108.000     19.723    135.000     16.375    111.000     19.211    114.000     18.726   3127.1523 
4    111.000     19.211    138.000     16.186    132.000     16.567    135.000     16.375    843.8959 
4    111.000     19.211    138.000     16.186    114.000     18.726    117.000     18.242   1550.7308 
4    114.000     18.726    141.000     15.997    117.000     18.242    120.000     17.899   2325.5522 
4    114.000     18.726    141.000     15.997    135.000     16.375    138.000     16.186    601.5831 
4    117.000     18.242    144.000     15.808    138.000     16.186    141.000     15.997    531.9116 
4    117.000     18.242    144.000     15.808    120.000     17.899    123.000     17.566   2084.5825 
4    120.000     17.899    147.000     15.618    141.000     15.997    144.000     15.808    212.4491 
4    120.000     17.899    147.000     15.618    123.000     17.566    126.000     17.233   1556.0051 
4    123.000     17.566    150.000     15.429    144.000     15.808    147.000     15.618    168.6114 
4    123.000     17.566    150.000     15.429    126.000     17.233    129.000     16.900   1486.3335 
4    126.000     17.233    153.000     15.262    147.000     15.618    150.000     15.429    216.7864 
4    126.000     17.233    153.000     15.262    129.000     16.900    132.000     16.567   1208.2113 
4    129.000     16.900    156.000     15.096    150.000     15.429    153.000     15.262    553.8821 
4    129.000     16.900    156.000     15.096    132.000     16.567    135.000     16.375   1210.9412 
4    132.000     16.567    159.000     14.930    153.000     15.262    156.000     15.096    446.4937 
4    132.000     16.567    159.000     14.930    135.000     16.375    138.000     16.186   1381.9006 
4    135.000     16.375    162.000     14.763    138.000     16.186    141.000     15.997    975.2896 
4    135.000     16.375    162.000     14.763    156.000     15.096    159.000     14.930    358.3376 
4    138.000     16.186    165.000     14.197    159.000     14.930    162.000     14.763    245.3379 
4    138.000     16.186    165.000     14.197    141.000     15.997    144.000     15.808    692.9742 
4    141.000     15.997    168.000     13.623    162.000     14.763    165.000     14.197    172.0227 
4    141.000     15.997    168.000     13.623    144.000     15.808    147.000     15.618    651.2171 
4    144.000     15.808    171.000     13.049    165.000     14.197    168.000     13.623     98.2959 
4    144.000     15.808    171.000     13.049    147.000     15.618    150.000     15.429    179.3211 
4    147.000     15.618    174.000     12.474    150.000     15.429    153.000     15.262    166.4125 
4    147.000     15.618    174.000     12.474    168.000     13.623    171.000     13.049     54.6442 
4    150.000     15.429    177.000     11.864    153.000     15.262    156.000     15.096    248.5818 
4    150.000     15.429    177.000     11.864    171.000     13.049    174.000     12.474     76.4615 
4    153.000     15.262    180.000     10.772    174.000     12.474    177.000     11.864    184.9255 
4    153.000     15.262    180.000     10.772    156.000     15.096    159.000     14.930    526.1860 
4    156.000     15.096    183.000      9.680    159.000     14.930    162.000     14.763    473.2034 
4    156.000     15.096    183.000      9.680    177.000     11.864    180.000     10.772   1057.4060 
4    159.000     14.930    186.000      8.588    162.000     14.763    165.000     14.197    377.5101 
4    159.000     14.930    186.000      8.588    180.000     10.772    183.000      9.680   3243.7278 
4    162.000     14.763    189.000      7.496    183.000      9.680    186.000      8.588   4417.1816 
4    162.000     14.763    189.000      7.496    165.000     14.197    168.000     13.623    256.9951 
4    165.000     14.197    192.000      6.407    168.000     13.623    171.000     13.049    166.2443 
4    165.000     14.197    192.000      6.407    186.000      8.588    189.000      7.496   1978.0786 
4    168.000     13.623    195.000      5.405    171.000     13.049    174.000     12.474     87.3146 
4    168.000     13.623    195.000      5.405    189.000      7.496    192.000      6.407   1205.4596 
4    171.000     13.049    198.000      4.404    174.000     12.474    177.000     11.864     68.3900 
4    171.000     13.049    198.000      4.404    192.000      6.407    195.000      5.405    351.1873 
4    174.000     12.474    201.000      3.438    195.000      5.405    198.000      4.404    207.1839 
4    174.000     12.474    201.000      3.438    177.000     11.864    180.000     10.772     71.0104 
4    177.000     11.864    204.000      2.964    198.000      4.404    201.000      3.438    246.1325 
4    177.000     11.864    204.000      2.964    180.000     10.772    183.000      9.680    132.6126 
4    180.000     10.772    207.000      2.489    201.000      3.438    204.000      2.964    212.6270 
4    180.000     10.772    207.000      2.489    183.000      9.680    186.000      8.588    767.7490 
4    183.000      9.680    210.000      2.014    204.000      2.964    207.000      2.489    220.0918 
4    183.000      9.680    210.000      2.014    186.000      8.588    189.000      7.496   2178.8855 
4    186.000      8.588    213.000      1.540    207.000      2.489    210.000      2.014    292.5130 
4    186.000      8.588    213.000      1.540    189.000      7.496    192.000      6.407   4169.2305 
4    189.000      7.496    216.000      1.065    210.000      2.014    213.000      1.540    279.7227 
4    189.000      7.496    216.000      1.065    192.000      6.407    195.000      5.405   2585.3000 
4    192.000      6.407    219.000      0.591    213.000      1.540    216.000      1.065    300.1029 
4    192.000      6.407    219.000      0.591    195.000      5.405    198.000      4.404   1963.4825 
4    195.000      5.405    222.000      0.415    216.000      1.065    219.000      0.591    325.4986 
4    195.000      5.405    222.000      0.415    198.000      4.404    201.000      3.438    554.2279 
4    198.000      4.404    225.000      0.300    219.000      0.591    222.000      0.415    409.2865 
4    198.000      4.404    225.000      0.300    201.000      3.438    204.000      2.964    240.2686 
4    201.000      3.438    228.000      0.186    204.000      2.964    207.000      2.489    257.9436 
4    201.000      3.438    228.000      0.186    222.000      0.415    225.000      0.300    453.6462 
4    204.000      2.964    231.000      0.071    225.000      0.300    228.000      0.186    338.8403 
4    204.000      2.964    231.000      0.071    207.000      2.489    210.000      2.014    241.4635 
4    207.000      2.489    234.000      0.000    228.000      0.186    231.000      0.071    584.1480 
4    207.000      2.489    234.000      0.000    210.000      2.014    213.000      1.540    228.2696 
4    210.000      2.014    237.000      0.000    213.000      1.540    216.000      1.065    266.9284 
4    210.000      2.014    237.000      0.000    231.000      0.071    234.000      0.000    682.0107 
4    213.000      1.540    240.000      0.000    234.000      0.000    237.000      0.000    689.5381 
4    213.000      1.540    240.000      0.000    216.000      1.065    219.000      0.591    273.7357 
4      0.000     38.050     27.000     38.865     18.000     38.593     21.000     38.684     75.9043 
4      0.000     38.050     27.000     38.865      6.000     38.231      9.000     38.322    161.8751 
4      3.000     38.141     30.000     38.956      9.000     38.322     12.000     38.412    121.3677 
4      3.000     38.141     30.000     38.956     21.000     38.684     24.000     38.775     73.3569 
4      6.000     38.231     33.000     37.920     24.000     38.775     27.000     38.865     62.7709 
4      6.000     38.231     33.000     37.920     12.000     38.412     15.000     38.503    113.2985 
4      9.000     38.322     36.000     36.829     27.000     38.865     30.000     38.956     85.1065 
4      9.000     38.322     36.000     36.829     15.000     38.503     18.000     38.593     99.1818 
4     12.000     38.412     39.000     35.738     30.000     38.956     33.000     37.920     79.7177 
4     12.000     38.412     39.000     35.738     18.000     38.593     21.000     38.684     81.6628 
4     15.000     38.503     42.000     34.647     21.000     38.684     24.000     38.775     82.1357 
4     15.000     38.503     42.000     34.647     33.000     37.920     36.000     36.829     83.7535 
4     18.000     38.593     45.000     33.556     36.000     36.829     39.000     35.738     57.1988 
4     18.000     38.593     45.000     33.556     24.000     38.775     27.000     38.865     72.1255 
4     21.000     38.684     48.000     33.483     27.000     38.865     30.000     38.956    100.7058 
4     21.000     38.684     48.000     33.483     39.000     35.738     42.000     34.647     53.7051 
4     24.000     38.775     51.000     33.435     42.000     34.647     45.000     33.556     53.5914 
4     24.000     38.775     51.000     33.435     30.000     38.956     33.000     37.920     81.0331 
4     27.000     38.865     54.000     33.388     33.000     37.920     36.000     36.829     75.8778 
4     27.000     38.865     54.000     33.388     45.000     33.556     48.000     33.483     80.6470 
4     30.000     38.956     57.000     33.340     36.000     36.829     39.000     35.738     58.7818 
4     30.000     38.956     57.000     33.340     48.000     33.483     51.000     33.435    167.3238 
4     33.000     37.920     60.000     33.292     39.000     35.738     42.000     34.647     63.4860 
4     33.000     37.920     60.000     33.292     51.000     33.435     54.000     33.388    229.4609 
4     36.000     36.829     63.000     32.832     54.000     33.388     57.000     33.340    461.0663 
4     36.000     36.829     63.000     32.832     42.000     34.647     45.000     33.556     65.1264 
4     39.000     35.738     66.000     31.548     57.000     33.340     60.000     33.292    396.2751 
4     39.000     35.738     66.000     31.548     45.000     33.556     48.000     33.483     63.6681 
4     42.000     34.647     69.000     30.264     48.000     33.483     51.000     33.435     62.3088 
4     42.000     34.647     69.000     30.264     60.000     33.292     63.000     32.832    235.4629 
4     45.000     33.556     72.000     28.980     51.000     33.435     54.000     33.388     61.8946 
4     45.000     33.556     72.000     28.980     63.000     32.832     66.000     31.548    471.5017 
4     48.000     33.483     75.000     28.185     66.000     31.548     69.000     30.264   1191.9159 
4     48.000     33.483     75.000     28.185     54.000     33.388     57.000     33.340     84.3380 
4     51.000     33.435     78.000     27.561     69.000     30.264     72.000     28.980    978.2242 
4     51.000     33.435     78.000     27.561     57.000     33.340     60.000     33.292    118.6740 
4     54.000     33.388     81.000     26.936     60.000     33.292     63.000     32.832    135.1252 
4     54.000     33.388     81.000     26.936     72.000     28.980     75.000     28.185    856.2430 
4     57.000     33.340     84.000     26.311     75.000     28.185     78.000     27.561    788.3414 
4     57.000     33.340     84.000     26.311     63.000     32.832     66.000     31.548    395.9555 
4     60.000     33.292     87.000     25.686     66.000     31.548     69.000     30.264    596.2380 
4     60.000     33.292     87.000     25.686     78.000     27.561     81.000     26.936   1469.7861 
4     63.000     32.832     90.000     24.876     69.000     30.264     72.000     28.980    268.8025 
4     63.000     32.832     90.000     24.876     81.000     26.936     84.000     26.311   1929.6541 
4     66.000     31.548     93.000     23.945     84.000     26.311     87.000     25.686   1847.2302 
4     66.000     31.548     93.000     23.945     72.000     28.980     75.000     28.185    417.5822 
4     69.000     30.264     96.000     23.015     75.000     28.185     78.000     27.561    887.9300 
4     69.000     30.264     96.000     23.015     87.000     25.686     90.000     24.876   1708.5375 
4     72.000     28.980     99.000     22.085     78.000     27.561     81.000     26.936   1197.2102 
4     72.000     28.980     99.000     22.085     90.000     24.876     93.000     23.945   1694.1981 
4     75.000     28.185    102.000     21.155     93.000     23.945     96.000     23.015   1589.2804 
4     75.000     28.185    102.000     21.155     81.000     26.936     84.000     26.311    844.4470 
4     78.000     27.561    105.000     20.420     84.000     26.311     87.000     25.686    830.3203 
4     78.000     27.561    105.000     20.420     96.000     23.015     99.000     22.085   1853.3160 
4     81.000     26.936    108.000     19.723     99.000     22.085    102.000     21.155   1859.7782 
4     81.000     26.936    108.000     19.723     87.000     25.686     90.000     24.876   1200.5847 
4     84.000     26.311    111.000     19.211     90.000     24.876     93.000     23.945   1746.7064 
4     84.000     26.311    111.000     19.211    102.000     21.155    105.000     20.420   2186.3862 
4     87.000     25.686    114.000     18.726     93.000     23.945     96.000     23.015   1817.9479 
4     87.000     25.686    114.000     18.726    105.000     20.420    108.000     19.723   1807.0027 
4     90.000     24.876    117.000     18.242     96.000     23.015     99.000     22.085   1803.6581 
4     90.000     24.876    117.000     18.242    108.000     19.723    111.000     19.211   1432.6859 
4     93.000     23.945    120.000     17.899     99.000     22.085    102.000     21.155   1789.9222 
4     93.000     23.945    120.000     17.899    111.000     19.211    114.000     18.726   2086.9810 
4     96.000     23.015    123.000     17.566    114.000     18.726    117.000     18.242   1454.9717 
4     96.000     23.015    123.000     17.566    102.000     21.155    105.000     20.420   1626.5588 
4     99.000     22.085    126.000     17.233    105.000     20.420    108.000     19.723   1836.3048 
4     99.000     22.085    126.000     17.233    117.000     18.242    120.000     17.899   1934.4634 
4    102.000     21.155    129.000     16.900    120.000     17.899    123.000     17.566   1433.6953 
4    102.000     21.155    129.000     16.900    108.000     19.723    111.000     19.211   1439.9199 
4    105.000     20.420    132.000     16.567    111.000     19.211    114.000     18.726   2574.4685 
4    105.000     20.420    132.000     16.567    123.000     17.566    126.000     17.233   1016.2517 
4    108.000     19.723    135.000     16.375    126.000     17.233    129.000     16.900   1029.0670 
4    108.000     19.723    135.000     16.375    114.000     18.726    117.000     18.242   1743.3121 
4    111.000     19.211    138.000     16.186    129.000     16.900    132.000     16.567    869.9539 
4    111.000     19.211    138.000     16.186    117.000     18.242    120.000     17.899   1753.7623 
4    114.000     18.726    141.000     15.997    120.000     17.899    123.000     17.566   1868.6254 
4    114.000     18.726    141.000     15.997    132.000     16.567    135.000     16.375    664.9015 
4    117.000     18.242    144.000     15.808    123.000     17.566    126.000     17.233   1306.4028 
4    117.000     18.242    144.000     15.808    135.000     16.375    138.000     16.186    532.7511 
4    120.000     17.899    147.000     15.618    126.000     17.233    129.000     16.900   1674.1982 
4    120.000     17.899    147.000     15.618    138.000     16.186    141.000     15.997    298.9597 
4    123.000     17.566    150.000     15.429    129.000     16.900    132.000     16.567   1523.6205 
4    123.000     17.566    150.000     15.429    141.000     15.997    144.000     15.808    287.8603 
4    126.000     17.233    153.000     15.262    144.000     15.808    147.000     15.618    220.3942 
4    126.000     17.233    153.000     15.262    132.000     16.567    135.000     16.375   1305.4628 
4    129.000     16.900    156.000     15.096    147.000     15.618    150.000     15.429    141.8436 
4    129.000     16.900    156.000     15.096    135.000     16.375    138.000     16.186   1241.0397 
4    132.000     16.567    159.000     14.930    138.000     16.186    141.000     15.997    962.3233 
4    132.000     16.567    159.000     14.930    150.000     15.429    153.000     15.262    257.8496 
4    135.000     16.375    162.000     14.763    141.000     15.997    144.000     15.808    727.8145 
4    135.000     16.375    162.000     14.763    153.000     15.262    156.000     15.096    176.7973 
4    138.000     16.186    165.000     14.197    156.000     15.096    159.000     14.930    123.0936 
4    138.000     16.186    165.000     14.197    144.000     15.808    147.000     15.618    572.6251 
4    141.000     15.997    168.000     13.623    159.000     14.930    162.000     14.763    101.3847 
4    141.000     15.997    168.000     13.623    147.000     15.618    150.000     15.429    164.5727 
4    144.000     15.808    171.000     13.049    150.000     15.429    153.000     15.262    199.6799 
4    144.000     15.808    171.000     13.049    162.000     14.763    165.000     14.197    100.7434 
4    147.000     15.618    174.000     12.474    165.000     14.197    168.000     13.623    107.1986 
4    147.000     15.618    174.000     12.474    153.000     15.262    156.000     15.096    225.3096 
4    150.000     15.429    177.000     11.864    156.000     15.096    159.000     14.930    178.2144 
4    150.000     15.429    177.000     11.864    168.000     13.623    171.000     13.049     62.3904 
4    153.000     15.262    180.000     10.772    171.000     13.049    174.000     12.474     90.1986 
4    153.000     15.262    180.000     10.772    159.000     14.930    162.000     14.763    252.2861 
4    156.000     15.096    183.000      9.680    174.000     12.474    177.000     11.864    235.6281 
4    156.000     15.096    183.000      9.680    162.000     14.763    165.000     14.197    182.5855 
4    159.000     14.930    186.000      8.588    177.000     11.864    180.000     10.772    996.9643 
4    159.000     14.930    186.000      8.588    165.000     14.197    168.000     13.623    133.6893 
4    162.000     14.763    189.000      7.496    180.000     10.772    183.000      9.680   3542.3088 
4    162.000     14.763    189.000      7.496    168.000     13.623    171.000     13.049     88.0521 
4    165.000     14.197    192.000      6.407    183.000      9.680    186.000      8.588   3426.2188 
4    165.000     14.197    192.000      6.407    171.000     13.049    174.000     12.474     76.5607 
4    168.000     13.623    195.000      5.405    186.000      8.588    189.000      7.496   1532.8534 
4    168.000     13.623    195.000      5.405    174.000     12.474    177.000     11.864    104.7632 
4    171.000     13.049    198.000      4.404    177.000     11.864    180.000     10.772     83.4809 
4    171.000     13.049    198.000      4.404    189.000      7.496    192.000      6.407    476.0014 
4    174.000     12.474    201.000      3.438    192.000      6.407    195.000      5.405    188.1767 
4    174.000     12.474    201.000      3.438    180.000     10.772    183.000      9.680    104.1199 
4    177.000     11.864    204.000      2.964    183.000      9.680    186.000      8.588    227.2650 
4    177.000     11.864    204.000      2.964    195.000      5.405    198.000      4.404    194.8466 
4    180.000     10.772    207.000      2.489    198.000      4.404    201.000      3.438    232.1140 
4    180.000     10.772    207.000      2.489    186.000      8.588    189.000      7.496    656.9253 
4    183.000      9.680    210.000      2.014    201.000      3.438    204.000      2.964    215.8074 
4    183.000      9.680    210.000      2.014    189.000      7.496    192.000      6.407   2751.2412 
4    186.000      8.588    213.000      1.540    204.000      2.964    207.000      2.489    244.4524 
4    186.000      8.588    213.000      1.540    192.000      6.407    195.000      5.405   3180.4612 
4    189.000      7.496    216.000      1.065    195.000      5.405    198.000      4.404   2535.1321 
4    189.000      7.496    216.000      1.065    207.000      2.489    210.000      2.014    320.2490 
4    192.000      6.407    219.000      0.591    210.000      2.014    213.000      1.540    307.0388 
4    192.000      6.407    219.000      0.591    198.000      4.404    201.000      3.438    740.5773 
4    195.000      5.405    222.000      0.415    213.000      1.540    216.000      1.065    298.9676 
4    195.000      5.405    222.000      0.415    201.000      3.438    204.000      2.964    280.7767 
4    198.000      4.404    225.000      0.300    204.000      2.964    207.000      2.489    258.3444 
4    198.000      4.404    225.000      0.300    216.000      1.065    219.000      0.591    342.8980 
4    201.000      3.438    228.000      0.186    207.000      2.489    210.000      2.014    292.8024 
4    201.000      3.438    228.000      0.186    219.000      0.591    222.000      0.415    427.1200 
4    204.000      2.964    231.000      0.071    222.000      0.415    225.000      0.300    392.4602 
4    204.000      2.964    231.000      0.071    210.000      2.014    213.000      1.540    260.5483 
4    207.000      2.489    234.000      0.000    225.000      0.300    228.000      0.186    430.3610 
4    207.000      2.489    234.000      0.000    213.000      1.540    216.000      1.065    248.6661 
4    210.000      2.014    237.000      0.000    228.000      0.186    231.000      0.071    919.4518 
4    210.000      2.014    237.000      0.000    216.000      1.065    219.000      0.591    302.0779 
4    213.000      1.540    240.000      0.000    231.000      0.071    234.000      0.000    992.4023 
4    213.000      1.540    240.000      0.000    219.000      0.591    222.000      0.415    330.8892 
4      0.000     38.050     54.000     33.388     42.000     34.647     48.000     33.483     76.8735 
4      0.000     38.050     54.000     33.388      6.000     38.231     12.000     38.412    163.5181 
4      3.000     38.141     57.000     33.340      9.000     38.322     15.000     38.503    133.2376 
4      3.000     38.141     57.000     33.340     45.000     33.556     51.000     33.435    146.1382 
4      6.000     38.231     60.000     33.292     48.000     33.483     54.000     33.388    222.2765 
4      6.000     38.231     60.000     33.292     12.000     38.412     18.000     38.593    123.1798 
4      9.000     38.322     63.000     32.832     51.000     33.435     57.000     33.340    433.5058 
4      9.000     38.322     63.000     32.832     15.000     38.503     21.000     38.684    107.5456 
4     12.000     38.412     66.000     31.548     54.000     33.388     60.000     33.292    431.4514 
4     12.000     38.412     66.000     31.548     18.000     38.593     24.000     38.775     94.5249 
4     15.000     38.503     69.000     30.264     21.000     38.684     27.000     38.865     88.5497 
4     15.000     38.503     69.000     30.264     57.000     33.340     63.000     32.832    224.6606 
4     18.000     38.593     72.000     28.980     24.000     38.775     30.000     38.956     93.9476 
4     18.000     38.593     72.000     28.980     60.000     33.292     66.000     31.548    399.5381 
4     21.000     38.684     75.000     28.185     27.000     38.865     33.000     37.920    100.3546 
4     21.000     38.684     75.000     28.185     63.000     32.832     69.000     30.264    999.4185 
4     24.000     38.775     78.000     27.561     30.000     38.956     36.000     36.829     83.7508 
4     24.000     38.775     78.000     27.561     66.000     31.548     72.000     28.980   1061.0496 
4     27.000     38.865     81.000     26.936     69.000     30.264     75.000     28.185    813.4553 
4     27.000     38.865     81.000     26.936     33.000     37.920     39.000     35.738     67.8190 
4     30.000     38.956     84.000     26.311     36.000     36.829     42.000     34.647     60.2110 
4     30.000     38.956     84.000     26.311     72.000     28.980     78.000     27.561    840.3397 
4     33.000     37.920     87.000     25.686     39.000     35.738     45.000     33.556     63.6309 
4     33.000     37.920     87.000     25.686     75.000     28.185     81.000     26.936   1340.6315 
4     36.000     36.829     90.000     24.876     42.000     34.647     48.000     33.483     67.7419 
4     36.000     36.829     90.000     24.876     78.000     27.561     84.000     26.311   1928.5576 
4     39.000     35.738     93.000     23.945     81.000     26.936     87.000     25.686   1989.8829 
4     39.000     35.738     93.000     23.945     45.000     33.556     51.000     33.435     65.4740 
4     42.000     34.647     96.000     23.015     84.000     26.311     90.000     24.876   1861.7579 
4     42.000     34.647     96.000     23.015     48.000     33.483     54.000     33.388     63.1123 
4     45.000     33.556     99.000     22.085     87.000     25.686     93.000     23.945   1802.3909 
4     45.000     33.556     99.000     22.085     51.000     33.435     57.000     33.340     63.6792 
4     48.000     33.483    102.000     21.155     54.000     33.388     60.000     33.292     78.2829 
4     48.000     33.483    102.000     21.155     90.000     24.876     96.000     23.015   1694.6566 
4     51.000     33.435    105.000     20.420     93.000     23.945     99.000     22.085   1859.5448 
4     51.000     33.435    105.000     20.420     57.000     33.340     63.000     32.832    112.7718 
4     54.000     33.388    108.000     19.723     96.000     23.015    102.000     21.155   1899.1106 
4     57.000     33.340    111.000     19.211     63.000     32.832     69.000     30.264    442.7155 
4     57.000     33.340    111.000     19.211     99.000     22.085    105.000     20.420   2287.6860 
4     60.000     33.292    114.000     18.726    102.000     21.155    108.000     19.723   1782.7864 
4     60.000     33.292    114.000     18.726     66.000     31.548     72.000     28.980    458.2659 
4     63.000     32.832    117.000     18.242    105.000     20.420    111.000     19.211   1565.0466 
4     63.000     32.832    117.000     18.242     69.000     30.264     75.000     28.185    172.0318 
4     66.000     31.548    120.000     17.899    108.000     19.723    114.000     18.726   1810.6171 
4     66.000     31.548    120.000     17.899     72.000     28.980     78.000     27.561    394.9802 
4     69.000     30.264    123.000     17.566     75.000     28.185     81.000     26.936    894.2614 
4     69.000     30.264    123.000     17.566    111.000     19.211    117.000     18.242   1530.7441 
4     72.000     28.980    126.000     17.233    114.000     18.726    120.000     17.899   1853.2260 
4     72.000     28.980    126.000     17.233     78.000     27.561     84.000     26.311    981.7140 
4     75.000     28.185    129.000     16.900    117.000     18.242    123.000     17.566   1544.6559 
4     75.000     28.185    129.000     16.900     81.000     26.936     87.000     25.686    737.7524 
4     78.000     27.561    132.000     16.567    120.000     17.899    126.000     17.233   1156.1387 
4     78.000     27.561    132.000     16.567     84.000     26.311     90.000     24.876    734.0542 
4     81.000     26.936    135.000     16.375    123.000     17.566    129.000     16.900    933.4487 
4     81.000     26.936    135.000     16.375     87.000     25.686     93.000     23.945   1173.1953 
4     84.000     26.311    138.000     16.186     90.000     24.876     96.000     23.015   1662.2324 
4     84.000     26.311    138.000     16.186    126.000     17.233    132.000     16.567    790.7495 
4     87.000     25.686    141.000     15.997     93.000     23.945     99.000     22.085   1782.7135 
4     87.000     25.686    141.000     15.997    129.000     16.900    135.000     16.375    562.9390 
4     90.000     24.876    144.000     15.808     96.000     23.015    102.000     21.155   1768.0592 
4     90.000     24.876    144.000     15.808    132.000     16.567    138.000     16.186    413.4709 
4     93.000     23.945    147.000     15.618     99.000     22.085    105.000     20.420   1715.3606 
4     93.000     23.945    147.000     15.618    135.000     16.375    141.000     15.997    194.2506 
4     96.000     23.015    150.000     15.429    138.000     16.186    144.000     15.808    210.5348 
4     96.000     23.015    150.000     15.429    102.000     21.155    108.000     19.723   1591.8073 
4     99.000     22.085    153.000     15.262    141.000     15.997    147.000     15.618    189.3971 
4     99.000     22.085    153.000     15.262    105.000     20.420    111.000     19.211   1657.5806 
4    102.000     21.155    156.000     15.096    108.000     19.723    114.000     18.726   1829.7704 
4    102.000     21.155    156.000     15.096    144.000     15.808    150.000     15.429    114.2889 
4    105.000     20.420    159.000     14.930    111.000     19.211    117.000     18.242   2338.2808 
4    105.000     20.420    159.000     14.930    147.000     15.618    153.000     15.262    203.4748 
4    108.000     19.723    162.000     14.763    150.000     15.429    156.000     15.096    142.0811 
4    108.000     19.723    162.000     14.763    114.000     18.726    120.000     17.899   1839.7656 
4    111.000     19.211    165.000     14.197    117.000     18.242    123.000     17.566   1739.9955 
4    111.000     19.211    165.000     14.197    153.000     15.262    159.000     14.930    114.5081 
4    114.000     18.726    168.000     13.623    120.000     17.899    126.000     17.233   1775.9941 
4    114.000     18.726    168.000     13.623    156.000     15.096    162.000     14.763    137.4417 
4    117.000     18.242    171.000     13.049    159.000     14.930    165.000     14.197     96.4541 
4    117.000     18.242    171.000     13.049    123.000     17.566    129.000     16.900   1455.4415 
4    120.000     17.899    174.000     12.474    126.000     17.233    132.000     16.567   1901.4258 
4    120.000     17.899    174.000     12.474    162.000     14.763    168.000     13.623    128.4686 
4    123.000     17.566    177.000     11.864    129.000     16.900    135.000     16.375   1663.9213 
4    123.000     17.566    177.000     11.864    165.000     14.197    171.000     13.049     81.8726 
4    126.000     17.233    180.000     10.772    168.000     13.623    174.000     12.474     85.5897 
4    126.000     17.233    180.000     10.772    132.000     16.567    138.000     16.186   1443.3206 
4    129.000     16.900    183.000      9.680    135.000     16.375    141.000     15.997   1248.0465 
4    129.000     16.900    183.000      9.680    171.000     13.049    177.000     11.864    210.4060 
4    132.000     16.567    186.000      8.588    138.000     16.186    144.000     15.808    976.8511 
4    132.000     16.567    186.000      8.588    174.000     12.474    180.000     10.772    814.4308 
4    135.000     16.375    189.000      7.496    177.000     11.864    183.000      9.680   2933.8728 
4    135.000     16.375    189.000      7.496    141.000     15.997    147.000     15.618    730.7200 
4    138.000     16.186    192.000      6.407    180.000     10.772    186.000      8.588   3371.8127 
4    138.000     16.186    192.000      6.407    144.000     15.808    150.000     15.429    473.9591 
4    141.000     15.997    195.000      5.405    147.000     15.618    153.000     15.262    189.0470 
4    141.000     15.997    195.000      5.405    183.000      9.680    189.000      7.496   1958.2083 
4    144.000     15.808    198.000      4.404    186.000      8.588    192.000      6.407    550.8362 
4    144.000     15.808    198.000      4.404    150.000     15.429    156.000     15.096    228.2874 
4    147.000     15.618    201.000      3.438    189.000      7.496    195.000      5.405    237.3049 
4    147.000     15.618    201.000      3.438    153.000     15.262    159.000     14.930    220.4500 
4    150.000     15.429    204.000      2.964    156.000     15.096    162.000     14.763    172.1002 
4    150.000     15.429    204.000      2.964    192.000      6.407    198.000      4.404    203.3424 
4    153.000     15.262    207.000      2.489    195.000      5.405    201.000      3.438    229.8264 
4    153.000     15.262    207.000      2.489    159.000     14.930    165.000     14.197    227.0258 
4    156.000     15.096    210.000      2.014    162.000     14.763    168.000     13.623    168.0592 
4    156.000     15.096    210.000      2.014    198.000      4.404    204.000      2.964    224.8899 
4    159.000     14.930    213.000      1.540    165.000     14.197    171.000     13.049    116.8638 
4    159.000     14.930    213.000      1.540    201.000      3.438    207.000      2.489    235.0919 
4    162.000     14.763    216.000      1.065    168.000     13.623    174.000     12.474     84.5945 
4    162.000     14.763    216.000      1.065    204.000      2.964    210.000      2.014    302.8037 
4    165.000     14.197    219.000      0.591    207.000      2.489    213.000      1.540    330.2451 
4    165.000     14.197    219.000      0.591    171.000     13.049    177.000     11.864     87.2291 
4    168.000     13.623    222.000      0.415    174.000     12.474    180.000     10.772    100.4099 
4    168.000     13.623    222.000      0.415    210.000      2.014    216.000      1.065    322.1586 
4    171.000     13.049    225.000      0.300    213.000      1.540    219.000      0.591    360.0487 
4    171.000     13.049    225.000      0.300    177.000     11.864    183.000      9.680     79.5765 
4    174.000     12.474    228.000      0.186    216.000      1.065    222.000      0.415    447.4612 
4    174.000     12.474    228.000      0.186    180.000     10.772    186.000      8.588    105.0319 
4    177.000     11.864    231.000      0.071    183.000      9.680    189.000      7.496    202.6435 
4    177.000     11.864    231.000      0.071    219.000      0.591    225.000      0.300    444.1511 
4    180.000     10.772    234.000      0.000    186.000      8.588    192.000      6.407    723.7118 
4    180.000     10.772    234.000      0.000    222.000      0.415    228.000      0.186    476.2406 
4    183.000      9.680    237.000      0.000    225.000      0.300    231.000      0.071    868.8694 
4    183.000      9.680    237.000      0.000    189.000      7.496    195.000      5.405   2658.4988 
4    186.000      8.588    240.000      0.000    192.000      6.407    198.000      4.404   3266.9685 
4    186.000      8.588    240.000      0.000    228.000      0.186    234.000      0.000   1121.0571 
4      0.000     38.050     27.000     38.865      9.000     38.322     12.000     38.412    145.2039 
4      0.000     38.050     27.000     38.865     15.000     38.503     18.000     38.593    108.4826 
4      3.000     38.141     30.000     38.956     18.000     38.593     21.000     38.684     86.0512 
4      3.000     38.141     30.000     38.956     12.000     38.412     15.000     38.503    132.3339 
4      6.000     38.231     33.000     37.920     15.000     38.503     18.000     38.593    117.2634 
4      6.000     38.231     33.000     37.920     21.000     38.684     24.000     38.775     88.3054 
4      9.000     38.322     36.000     36.829     18.000     38.593     21.000     38.684     99.0049 
4      9.000     38.322     36.000     36.829     24.000     38.775     27.000     38.865     74.8247 
4     12.000     38.412     39.000     35.738     27.000     38.865     30.000     38.956    110.3867 
4     12.000     38.412     39.000     35.738     21.000     38.684     24.000     38.775     99.0211 
4     15.000     38.503     42.000     34.647     30.000     38.956     33.000     37.920     96.7918 
4     15.000     38.503     42.000     34.647     24.000     38.775     27.000     38.865     86.2509 
4     18.000     38.593     45.000     33.556     27.000     38.865     30.000     38.956    122.9423 
4     18.000     38.593     45.000     33.556     33.000     37.920     36.000     36.829    101.3013 
4     21.000     38.684     48.000     33.483     30.000     38.956     33.000     37.920     97.2993 
4     21.000     38.684     48.000     33.483     36.000     36.829     39.000     35.738     68.1006 
4     24.000     38.775     51.000     33.435     33.000     37.920     36.000     36.829     94.9945 
4     24.000     38.775     51.000     33.435     39.000     35.738     42.000     34.647     64.0848 
4     27.000     38.865     54.000     33.388     36.000     36.829     39.000     35.738     62.8214 
4     27.000     38.865     54.000     33.388     42.000     34.647     45.000     33.556     62.5537 
4     30.000     38.956     57.000     33.340     45.000     33.556     48.000     33.483     79.7482 
4     30.000     38.956     57.000     33.340     39.000     35.738     42.000     34.647     66.9212 
4     33.000     37.920     60.000     33.292     48.000     33.483     51.000     33.435    150.6434 
4     33.000     37.920     60.000     33.292     42.000     34.647     45.000     33.556     68.2156 
4     36.000     36.829     63.000     32.832     45.000     33.556     48.000     33.483     84.7338 
4     36.000     36.829     63.000     32.832     51.000     33.435     54.000     33.388    245.8801 
4     39.000     35.738     66.000     31.548     54.000     33.388     57.000     33.340    339.3356 
4     39.000     35.738     66.000     31.548     48.000     33.483     51.000     33.435    100.8342 
4     42.000     34.647     69.000     30.264     57.000     33.340     60.000     33.292    136.6713 
4     42.000     34.647     69.000     30.264     51.000     33.435     54.000     33.388     84.7144 
4     45.000     33.556     72.000     28.980     60.000     33.292     63.000     32.832    148.3936 
4     45.000     33.556     72.000     28.980     54.000     33.388     57.000     33.340     94.5667 
4     48.000     33.483     75.000     28.185     57.000     33.340     60.000     33.292     74.7021 
4     48.000     33.483     75.000     28.185     63.000     32.832     66.000     31.548    328.5106 
4     51.000     33.435     78.000     27.561     66.000     31.548     69.000     30.264    825.7722 
4     51.000     33.435     78.000     27.561     60.000     33.292     63.000     32.832    100.7177 
4     54.000     33.388     81.000     26.936     69.000     30.264     72.000     28.980    449.3083 
4     54.000     33.388     81.000     26.936     63.000     32.832     66.000     31.548    248.5039 
4     57.000     33.340     84.000     26.311     72.000     28.980     75.000     28.185    625.9178 
4     57.000     33.340     84.000     26.311     66.000     31.548     69.000     30.264    518.7500 
4     60.000     33.292     87.000     25.686     75.000     28.185     78.000     27.561    625.8661 
4     60.000     33.292     87.000     25.686     69.000     30.264     72.000     28.980    242.2900 
4     63.000     32.832     90.000     24.876     78.000     27.561     81.000     26.936   1183.7090 
4     63.000     32.832     90.000     24.876     72.000     28.980     75.000     28.185    305.2142 
4     66.000     31.548     93.000     23.945     75.000     28.185     78.000     27.561    386.1256 
4     66.000     31.548     93.000     23.945     81.000     26.936     84.000     26.311   1462.1417 
4     69.000     30.264     96.000     23.015     84.000     26.311     87.000     25.686   1458.9120 
4     69.000     30.264     96.000     23.015     78.000     27.561     81.000     26.936    925.3333 
4     72.000     28.980     99.000     22.085     87.000     25.686     90.000     24.876   1366.7538 
4     72.000     28.980     99.000     22.085     81.000     26.936     84.000     26.311    758.4647 
4     75.000     28.185    102.000     21.155     84.000     26.311     87.000     25.686    839.4714 
4     75.000     28.185    102.000     21.155     90.000     24.876     93.000     23.945   1373.0259 
4     78.000     27.561    105.000     20.420     87.000     25.686     90.000     24.876    875.4865 
4     78.000     27.561    105.000     20.420     93.000     23.945     96.000     23.015   1327.3862 
4     81.000     26.936    108.000     19.723     90.000     24.876     93.000     23.945   1293.1694 
4     81.000     26.936    108.000     19.723     96.000     23.015     99.000     22.085   1507.5599 
4     84.000     26.311    111.000     19.211     93.000     23.945     96.000     23.015   1554.1206 
4     84.000     26.311    111.000     19.211     99.000     22.085    102.000     21.155   1939.2477 
4     87.000     25.686    114.000     18.726     96.000     23.015     99.000     22.085   1635.7753 
4     87.000     25.686    114.000     18.726    102.000     21.155    105.000     20.420   1545.4540 
4     90.000     24.876    117.000     18.242    105.000     20.420    108.000     19.723   1628.2623 
4     90.000     24.876    117.000     18.242     99.000     22.085    102.000     21.155   1668.9452 
4     93.000     23.945    120.000     17.899    102.000     21.155    105.000     20.420   1508.2434 
4     93.000     23.945    120.000     17.899    108.000     19.723    111.000     19.211   1186.9291 
4     96.000     23.015    123.000     17.566    105.000     20.420    108.000     19.723   1484.7354 
4     96.000     23.015    123.000     17.566    111.000     19.211    114.000     18.726   1755.0929 
4     99.000     22.085    126.000     17.233    108.000     19.723    111.000     19.211   1183.3358 
4     99.000     22.085    126.000     17.233    114.000     18.726    117.000     18.242   1423.9973 
4    102.000     21.155    129.000     16.900    111.000     19.211    114.000     18.726   2245.5154 
4    102.000     21.155    129.000     16.900    117.000     18.242    120.000     17.899   1781.8324 
4    105.000     20.420    132.000     16.567    114.000     18.726    117.000     18.242   1508.2694 
4    105.000     20.420    132.000     16.567    120.000     17.899    123.000     17.566   1348.4143 
4    108.000     19.723    135.000     16.375    123.000     17.566    126.000     17.233    907.6562 
4    108.000     19.723    135.000     16.375    117.000     18.242    120.000     17.899   1811.1892 
4    111.000     19.211    138.000     16.186    120.000     17.899    123.000     17.566   1346.8843 
4    111.000     19.211    138.000     16.186    126.000     17.233    129.000     16.900    836.5115 
4    114.000     18.726    141.000     15.997    129.000     16.900    132.000     16.567    810.3909 
4    114.000     18.726    141.000     15.997    123.000     17.566    126.000     17.233   1092.5558 
4    117.000     18.242    144.000     15.808    132.000     16.567    135.000     16.375    672.1924 
4    117.000     18.242    144.000     15.808    126.000     17.233    129.000     16.900   1217.3586 
4    120.000     17.899    147.000     15.618    135.000     16.375    138.000     16.186    577.9888 
4    120.000     17.899    147.000     15.618    129.000     16.900    132.000     16.567   1357.8708 
4    123.000     17.566    150.000     15.429    132.000     16.567    135.000     16.375   1280.6334 
4    123.000     17.566    150.000     15.429    138.000     16.186    141.000     15.997    461.8831 
4    126.000     17.233    153.000     15.262    135.000     16.375    138.000     16.186   1101.5148 
4    126.000     17.233    153.000     15.262    141.000     15.997    144.000     15.808    375.2602 
4    129.000     16.900    156.000     15.096    144.000     15.808    147.000     15.618    248.9725 
4    129.000     16.900    156.000     15.096    138.000     16.186    141.000     15.997    799.7953 
4    132.000     16.567    159.000     14.930    147.000     15.618    150.000     15.429    104.6084 
4    132.000     16.567    159.000     14.930    141.000     15.997    144.000     15.808    644.6613 
4    135.000     16.375    162.000     14.763    150.000     15.429    153.000     15.262    145.1586 
4    135.000     16.375    162.000     14.763    144.000     15.808    147.000     15.618    470.8290 
4    138.000     16.186    165.000     14.197    147.000     15.618    150.000     15.429    140.7054 
4    138.000     16.186    165.000     14.197    153.000     15.262    156.000     15.096    137.3978 
4    141.000     15.997    168.000     13.623    150.000     15.429    153.000     15.262    174.7386 
4    141.000     15.997    168.000     13.623    156.000     15.096    159.000     14.930    109.5598 
4    144.000     15.808    171.000     13.049    159.000     14.930    162.000     14.763    105.5916 
4    144.000     15.808    171.000     13.049    153.000     15.262    156.000     15.096    211.1059 
4    147.000     15.618    174.000     12.474    162.000     14.763    165.000     14.197    116.3612 
4    147.000     15.618    174.000     12.474    156.000     15.096    159.000     14.930    156.0876 
4    150.000     15.429    177.000     11.864    165.000     14.197    168.000     13.623    112.8789 
4    150.000     15.429    177.000     11.864    159.000     14.930    162.000     14.763    125.0701 
4    153.000     15.262    180.000     10.772    168.000     13.623    171.000     13.049     72.5505 
4    153.000     15.262    180.000     10.772    162.000     14.763    165.000     14.197    132.6810 
4    156.000     15.096    183.000      9.680    165.000     14.197    168.000     13.623    123.7543 
4    156.000     15.096    183.000      9.680    171.000     13.049    174.000     12.474    104.1313 
4    159.000     14.930    186.000      8.588    168.000     13.623    171.000     13.049     78.5406 
4    159.000     14.930    186.000      8.588    174.000     12.474    177.000     11.864    213.5666 
4    162.000     14.763    189.000      7.496    171.000     13.049    174.000     12.474     80.2784 
4    162.000     14.763    189.000      7.496    177.000     11.864    180.000     10.772    772.1349 
4    165.000     14.197    192.000      6.407    174.000     12.474    177.000     11.864    122.9344 
4    165.000     14.197    192.000      6.407    180.000     10.772    183.000      9.680   1920.6189 
4    168.000     13.623    195.000      5.405    177.000     11.864    180.000     10.772    170.7172 
4    168.000     13.623    195.000      5.405    183.000      9.680    186.000      8.588   1896.3677 
4    171.000     13.049    198.000      4.404    186.000      8.588    189.000      7.496    488.9214 
4    171.000     13.049    198.000      4.404    180.000     10.772    183.000      9.680    202.3166 
4    174.000     12.474    201.000      3.438    183.000      9.680    186.000      8.588    246.6701 
4    174.000     12.474    201.000      3.438    189.000      7.496    192.000      6.407    265.6026 
4    177.000     11.864    204.000      2.964    186.000      8.588    189.000      7.496    241.7149 
4    177.000     11.864    204.000      2.964    192.000      6.407    195.000      5.405    181.3112 
4    180.000     10.772    207.000      2.489    195.000      5.405    198.000      4.404    241.5339 
4    180.000     10.772    207.000      2.489    189.000      7.496    192.000      6.407    655.2504 
4    183.000      9.680    210.000      2.014    198.000      4.404    201.000      3.438    280.9612 
4    183.000      9.680    210.000      2.014    192.000      6.407    195.000      5.405   1494.9448 
4    186.000      8.588    213.000      1.540    195.000      5.405    198.000      4.404   2132.4663 
4    186.000      8.588    213.000      1.540    201.000      3.438    204.000      2.964    255.6339 
4    189.000      7.496    216.000      1.065    204.000      2.964    207.000      2.489    284.7193 
4    189.000      7.496    216.000      1.065    198.000      4.404    201.000      3.438    701.7899 
4    192.000      6.407    219.000      0.591    201.000      3.438    204.000      2.964    329.5527 
4    192.000      6.407    219.000      0.591    207.000      2.489    210.000      2.014    349.5532 
4    195.000      5.405    222.000      0.415    204.000      2.964    207.000      2.489    293.1386 
4    195.000      5.405    222.000      0.415    210.000      2.014    213.000      1.540    318.6857 
4    198.000      4.404    225.000      0.300    207.000      2.489    210.000      2.014    320.3143 
4    198.000      4.404    225.000      0.300    213.000      1.540    216.000      1.065    318.6679 
4    201.000      3.438    228.000      0.186    216.000      1.065    219.000      0.591    378.7032 
4    201.000      3.438    228.000      0.186    210.000      2.014    213.000      1.540    305.1608 
4    204.000      2.964    231.000      0.071    219.000      0.591    222.000      0.415    422.6027 
4    204.000      2.964    231.000      0.071    213.000      1.540    216.000      1.065    288.2285 
4    207.000      2.489    234.000      0.000    216.000      1.065    219.000      0.591    321.5228 
4    207.000      2.489    234.000      0.000    222.000      0.415    225.000      0.300    438.9550 
4    210.000      2.014    237.000      0.000    225.000      0.300    228.000      0.186    543.4069 
4    210.000      2.014    237.000      0.000    219.000      0.591    222.000      0.415    393.7403 
4    213.000      1.540    240.000      0.000    228.000      0.186    231.000      0.071   1018.3510 
4    213.000      1.540    240.000      0.000    222.000      0.415    225.000      0.300    389.5670 
4      0.000     38.050     27.000     38.865     12.000     38.412     15.000     38.503    135.0277 
4      3.000     38.141     30.000     38.956     15.000     38.503     18.000     38.593    116.8250 
4      6.000     38.231     33.000     37.920     18.000     38.593     21.000     38.684     97.9498 
4      9.000     38.322     36.000     36.829     21.000     38.684     24.000     38.775     99.3963 
4     12.000     38.412     39.000     35.738     24.000     38.775     27.000     38.865     86.9368 
4     15.000     38.503     42.000     34.647     27.000     38.865     30.000     38.956    124.8936 
4     18.000     38.593     45.000     33.556     30.000     38.956     33.000     37.920    105.4915 
4     21.000     38.684     48.000     33.483     33.000     37.920     36.000     36.829    104.0633 
4     24.000     38.775     51.000     33.435     36.000     36.829     39.000     35.738     69.8925 
4     27.000     38.865     54.000     33.388     39.000     35.738     42.000     34.647     66.2916 
4     30.000     38.956     57.000     33.340     42.000     34.647     45.000     33.556     66.3369 
4     33.000     37.920     60.000     33.292     45.000     33.556     48.000     33.483     84.0700 
4     36.000     36.829     63.000     32.832     48.000     33.483     51.000     33.435    143.8214 
4     39.000     35.738     66.000     31.548     51.000     33.435     54.000     33.388    165.2686 
4     42.000     34.647     69.000     30.264     54.000     33.388     57.000     33.340    132.6573 
4     45.000     33.556     72.000     28.980     57.000     33.340     60.000     33.292     92.9468 
4     48.000     33.483     75.000     28.185     60.000     33.292     63.000     32.832    102.9851 
4     51.000     33.435     78.000     27.561     63.000     32.832     66.000     31.548    251.1176 
4     54.000     33.388     81.000     26.936     66.000     31.548     69.000     30.264    460.6209 
4     57.000     33.340     84.000     26.311     69.000     30.264     72.000     28.980    311.6303 
4     60.000     33.292     87.000     25.686     72.000     28.980     75.000     28.185    423.3987 
4     63.000     32.832     90.000     24.876     75.000     28.185     78.000     27.561    448.9003 
4     66.000     31.548     93.000     23.945     78.000     27.561     81.000     26.936    801.0118 
4     69.000     30.264     96.000     23.015     81.000     26.936     84.000     26.311   1016.8694 
4     72.000     28.980     99.000     22.085     84.000     26.311     87.000     25.686   1020.9391 
4     75.000     28.185    102.000     21.155     87.000     25.686     90.000     24.876   1023.9305 
4     78.000     27.561    105.000     20.420     90.000     24.876     93.000     23.945   1113.5828 
4     81.000     26.936    108.000     19.723     93.000     23.945     96.000     23.015   1178.4139 
4     84.000     26.311    111.000     19.211     96.000     23.015     99.000     22.085   1617.3239 
4     87.000     25.686    114.000     18.726     99.000     22.085    102.000     21.155   1569.6327 
4     90.000     24.876    117.000     18.242    102.000     21.155    105.000     20.420   1482.3309 
4     93.000     23.945    120.000     17.899    105.000     20.420    108.000     19.723   1401.6152 
4     96.000     23.015    123.000     17.566    108.000     19.723    111.000     19.211   1016.5641 
4     99.000     22.085    126.000     17.233    111.000     19.211    114.000     18.726   1920.6190 
4    102.000     21.155    129.000     16.900    114.000     18.726    117.000     18.242   1416.2067 
4    105.000     20.420    132.000     16.567    117.000     18.242    120.000     17.899   1691.5836 
4    108.000     19.723    135.000     16.375    120.000     17.899    123.000     17.566   1337.5984 
4    111.000     19.211    138.000     16.186    123.000     17.566    126.000     17.233    823.4730 
4    114.000     18.726    141.000     15.997    126.000     17.233    129.000     16.900    977.0309 
4    117.000     18.242    144.000     15.808    129.000     16.900    132.000     16.567    941.9067 
4    120.000     17.899    147.000     15.618    132.000     16.567    135.000     16.375    945.7426 
4    123.000     17.566    150.000     15.429    135.000     16.375    138.000     16.186    902.0078 
4    126.000     17.233    153.000     15.262    138.000     16.186    141.000     15.997    625.7034 
4    129.000     16.900    156.000     15.096    141.000     15.997    144.000     15.808    487.3157 
4    132.000     16.567    159.000     14.930    144.000     15.808    147.000     15.618    350.0080 
4    135.000     16.375    162.000     14.763    147.000     15.618    150.000     15.429    114.4975 
4    138.000     16.186    165.000     14.197    150.000     15.429    153.000     15.262    148.9019 
4    141.000     15.997    168.000     13.623    153.000     15.262    156.000     15.096    164.1998 
4    144.000     15.808    171.000     13.049    156.000     15.096    159.000     14.930    136.1498 
4    147.000     15.618    174.000     12.474    159.000     14.930    162.000     14.763    122.3349 
4    150.000     15.429    177.000     11.864    162.000     14.763    165.000     14.197    113.2112 
4    153.000     15.262    180.000     10.772    165.000     14.197    168.000     13.623    119.6197 
4    156.000     15.096    183.000      9.680    168.000     13.623    171.000     13.049     80.4610 
4    159.000     14.930    186.000      8.588    171.000     13.049    174.000     12.474     93.8301 
4    162.000     14.763    189.000      7.496    174.000     12.474    177.000     11.864    168.4464 
4    165.000     14.197    192.000      6.407    177.000     11.864    180.000     10.772    358.9709 
4    168.000     13.623    195.000      5.405    180.000     10.772    183.000      9.680    811.7637 
4    171.000     13.049    198.000      4.404    183.000      9.680    186.000      8.588    512.7588 
4    174.000     12.474    201.000      3.438    186.000      8.588    189.000      7.496    257.6904 
4    177.000     11.864    204.000      2.964    189.000      7.496    192.000      6.407    260.1578 
4    180.000     10.772    207.000      2.489    192.000      6.407    195.000      5.405    335.8388 
4    183.000      9.680    210.000      2.014    195.000      5.405    198.000      4.404    803.3379 
4    186.000      8.588    213.000      1.540    198.000      4.404    201.000      3.438    517.6672 
4    189.000      7.496    216.000      1.065    201.000      3.438    204.000      2.964    306.8934 
4    192.000      6.407    219.000      0.591    204.000      2.964    207.000      2.489    313.1985 
4    195.000      5.405    222.000      0.415    207.000      2.489    210.000      2.014    346.7281 
4    198.000      4.404    225.000      0.300    210.000      2.014    213.000      1.540    321.8091 
4    201.000      3.438    228.000      0.186    213.000      1.540    216.000      1.065    326.6760 
4    204.000      2.964    231.000      0.071    216.000      1.065    219.000      0.591    360.9615 
4    207.000      2.489    234.000      0.000    219.000      0.591    222.000      0.415    417.6138 
4    210.000      2.014    237.000      0.000    222.000      0.415    225.000      0.300    462.9602 
4    213.000      1.540    240.000      0.000    225.000      0.300    228.000      0.186    509.5996 
4      0.000     38.050     54.000     33.388     12.000     38.412     18.000     38.593    167.8824 
4      0.000     38.050     54.000     33.388     36.000     36.829     42.000     34.647     81.3732 
4      3.000     38.141     57.000     33.340     39.000     35.738     45.000     33.556     76.9033 
4      3.000     38.141     57.000     33.340     15.000     38.503     21.000     38.684    148.1845 
4      6.000     38.231     60.000     33.292     18.000     38.593     24.000     38.775    139.3417 
4      6.000     38.231     60.000     33.292     42.000     34.647     48.000     33.483     91.7058 
4      9.000     38.322     63.000     32.832     21.000     38.684     27.000     38.865    135.3356 
4      9.000     38.322     63.000     32.832     45.000     33.556     51.000     33.435    161.2671 
4     12.000     38.412     66.000     31.548     48.000     33.483     54.000     33.388    208.2439 
4     12.000     38.412     66.000     31.548     24.000     38.775     30.000     38.956    143.7610 
4     15.000     38.503     69.000     30.264     51.000     33.435     57.000     33.340    156.8414 
4     15.000     38.503     69.000     30.264     27.000     38.865     33.000     37.920    150.6190 
4     18.000     38.593     72.000     28.980     54.000     33.388     60.000     33.292    134.9419 
4     18.000     38.593     72.000     28.980     30.000     38.956     36.000     36.829    124.9505 
4     21.000     38.684     75.000     28.185     57.000     33.340     63.000     32.832    126.3462 
4     21.000     38.684     75.000     28.185     33.000     37.920     39.000     35.738     97.5231 
4     24.000     38.775     78.000     27.561     60.000     33.292     66.000     31.548    233.8409 
4     24.000     38.775     78.000     27.561     36.000     36.829     42.000     34.647     73.4148 
4     27.000     38.865     81.000     26.936     39.000     35.738     45.000     33.556     68.1887 
4     27.000     38.865     81.000     26.936     63.000     32.832     69.000     30.264    421.6435 
4     30.000     38.956     84.000     26.311     66.000     31.548     72.000     28.980    454.5439 
4     30.000     38.956     84.000     26.311     42.000     34.647     48.000     33.483     74.3278 
4     33.000     37.920     87.000     25.686     45.000     33.556     51.000     33.435     85.0814 
4     33.000     37.920     87.000     25.686     69.000     30.264     75.000     28.185    526.7729 
4     36.000     36.829     90.000     24.876     72.000     28.980     78.000     27.561    632.2505 
4     36.000     36.829     90.000     24.876     48.000     33.483     54.000     33.388     94.8203 
4     39.000     35.738     93.000     23.945     51.000     33.435     57.000     33.340     94.8290 
4     39.000     35.738     93.000     23.945     75.000     28.185     81.000     26.936    924.6482 
4     42.000     34.647     96.000     23.015     78.000     27.561     84.000     26.311   1268.5743 
4     42.000     34.647     96.000     23.015     54.000     33.388     60.000     33.292     87.9423 
4     45.000     33.556     99.000     22.085     81.000     26.936     87.000     25.686   1361.1852 
4     45.000     33.556     99.000     22.085     57.000     33.340     63.000     32.832     66.7476 
4     48.000     33.483    102.000     21.155     60.000     33.292     66.000     31.548     84.1846 
4     48.000     33.483    102.000     21.155     84.000     26.311     90.000     24.876   1296.1229 
4     51.000     33.435    105.000     20.420     63.000     32.832     69.000     30.264    200.2637 
4     51.000     33.435    105.000     20.420     87.000     25.686     93.000     23.945   1304.8452 
4     54.000     33.388    108.000     19.723     90.000     24.876     96.000     23.015   1270.3497 
4     54.000     33.388    108.000     19.723     66.000     31.548     72.000     28.980    230.8325 
4     57.000     33.340    111.000     19.211     69.000     30.264     75.000     28.185    149.4136 
4     57.000     33.340    111.000     19.211     93.000     23.945     99.000     22.085   1574.9789 
4     60.000     33.292    114.000     18.726     72.000     28.980     78.000     27.561    139.1609 
4     60.000     33.292    114.000     18.726     96.000     23.015    102.000     21.155   1429.4222 
4     63.000     32.832    117.000     18.242     75.000     28.185     81.000     26.936    155.1458 
4     63.000     32.832    117.000     18.242     99.000     22.085    105.000     20.420   1401.2324 
4     66.000     31.548    120.000     17.899    102.000     21.155    108.000     19.723   1237.8591 
4     69.000     30.264    123.000     17.566     81.000     26.936     87.000     25.686    333.9253 
4     69.000     30.264    123.000     17.566    105.000     20.420    111.000     19.211    964.5470 
4     72.000     28.980    126.000     17.233     84.000     26.311     90.000     24.876    366.0477 
4     72.000     28.980    126.000     17.233    108.000     19.723    114.000     18.726   1264.0381 
4     75.000     28.185    129.000     16.900    111.000     19.211    117.000     18.242   1250.9971 
4     75.000     28.185    129.000     16.900     87.000     25.686     93.000     23.945    492.1091 
4     78.000     27.561    132.000     16.567    114.000     18.726    120.000     17.899   1097.5118 
4     78.000     27.561    132.000     16.567     90.000     24.876     96.000     23.015    549.8801 
4     81.000     26.936    135.000     16.375    117.000     18.242    123.000     17.566   1004.4220 
4     81.000     26.936    135.000     16.375     93.000     23.945     99.000     22.085    826.1907 
4     84.000     26.311    138.000     16.186    120.000     17.899    126.000     17.233    575.7325 
4     84.000     26.311    138.000     16.186     96.000     23.015    102.000     21.155   1063.6239 
4     87.000     25.686    141.000     15.997    123.000     17.566    129.000     16.900    421.1448 
4     87.000     25.686    141.000     15.997     99.000     22.085    105.000     20.420   1149.6421 
4     90.000     24.876    144.000     15.808    102.000     21.155    108.000     19.723   1113.8700 
4     90.000     24.876    144.000     15.808    126.000     17.233    132.000     16.567    320.1045 
4     93.000     23.945    147.000     15.618    129.000     16.900    135.000     16.375    208.8673 
4     93.000     23.945    147.000     15.618    105.000     20.420    111.000     19.211   1058.7056 
4     96.000     23.015    150.000     15.429    132.000     16.567    138.000     16.186    210.0647 
4     96.000     23.015    150.000     15.429    108.000     19.723    114.000     18.726   1199.6288 
4     99.000     22.085    153.000     15.262    111.000     19.211    117.000     18.242   1572.1743 
4     99.000     22.085    153.000     15.262    135.000     16.375    141.000     15.997    210.2092 
4    102.000     21.155    156.000     15.096    138.000     16.186    144.000     15.808    172.6720 
4    102.000     21.155    156.000     15.096    114.000     18.726    120.000     17.899   1386.6318 
4    105.000     20.420    159.000     14.930    141.000     15.997    147.000     15.618    139.5144 
4    105.000     20.420    159.000     14.930    117.000     18.242    123.000     17.566   1473.7366 
4    108.000     19.723    162.000     14.763    120.000     17.899    126.000     17.233   1109.6523 
4    111.000     19.211    165.000     14.197    123.000     17.566    129.000     16.900    982.5082 
4    111.000     19.211    165.000     14.197    147.000     15.618    153.000     15.262     87.1528 
4    114.000     18.726    168.000     13.623    150.000     15.429    156.000     15.096    104.4067 
4    114.000     18.726    168.000     13.623    126.000     17.233    132.000     16.567   1288.8058 
4    117.000     18.242    171.000     13.049    129.000     16.900    135.000     16.375   1323.2518 
4    117.000     18.242    171.000     13.049    153.000     15.262    159.000     14.930    108.5720 
4    120.000     17.899    174.000     12.474    132.000     16.567    138.000     16.186   1441.1589 
4    123.000     17.566    177.000     11.864    159.000     14.930    165.000     14.197    124.9778 
4    123.000     17.566    177.000     11.864    135.000     16.375    141.000     15.997   1263.8263 
4    126.000     17.233    180.000     10.772    138.000     16.186    144.000     15.808    981.1901 
4    129.000     16.900    183.000      9.680    141.000     15.997    147.000     15.618    644.8363 
4    129.000     16.900    183.000      9.680    165.000     14.197    171.000     13.049    119.4030 
4    132.000     16.567    186.000      8.588    168.000     13.623    174.000     12.474    112.2662 
4    132.000     16.567    186.000      8.588    144.000     15.808    150.000     15.429    385.3212 
4    135.000     16.375    189.000      7.496    171.000     13.049    177.000     11.864    189.8145 
4    135.000     16.375    189.000      7.496    147.000     15.618    153.000     15.262    174.5434 
4    138.000     16.186    192.000      6.407    150.000     15.429    156.000     15.096    210.8307 
4    138.000     16.186    192.000      6.407    174.000     12.474    180.000     10.772    418.6292 
4    141.000     15.997    195.000      5.405    177.000     11.864    183.000      9.680    959.7316 
4    141.000     15.997    195.000      5.405    153.000     15.262    159.000     14.930    211.9292 
4    144.000     15.808    198.000      4.404    156.000     15.096    162.000     14.763    176.8652 
4    144.000     15.808    198.000      4.404    180.000     10.772    186.000      8.588    687.4842 
4    147.000     15.618    201.000      3.438    159.000     14.930    165.000     14.197    151.5120 
4    147.000     15.618    201.000      3.438    183.000      9.680    189.000      7.496    434.9854 
4    150.000     15.429    204.000      2.964    162.000     14.763    168.000     13.623    131.0104 
4    150.000     15.429    204.000      2.964    186.000      8.588    192.000      6.407    321.9946 
4    153.000     15.262    207.000      2.489    189.000      7.496    195.000      5.405    238.7968 
4    153.000     15.262    207.000      2.489    165.000     14.197    171.000     13.049    112.0381 
4    156.000     15.096    210.000      2.014    168.000     13.623    174.000     12.474     86.6376 
4    156.000     15.096    210.000      2.014    192.000      6.407    198.000      4.404    199.4265 
4    159.000     14.930    213.000      1.540    195.000      5.405    201.000      3.438    229.9082 
4    159.000     14.930    213.000      1.540    171.000     13.049    177.000     11.864     99.3612 
4    162.000     14.763    216.000      1.065    174.000     12.474    180.000     10.772    113.4386 
4    162.000     14.763    216.000      1.065    198.000      4.404    204.000      2.964    265.9951 
4    165.000     14.197    219.000      0.591    177.000     11.864    183.000      9.680    117.6442 
4    165.000     14.197    219.000      0.591    201.000      3.438    207.000      2.489    294.4520 
4    168.000     13.623    222.000      0.415    204.000      2.964    210.000      2.014    377.9012 
4    168.000     13.623    222.000      0.415    180.000     10.772    186.000      8.588    166.6958 
4    171.000     13.049    225.000      0.300    183.000      9.680    189.000      7.496    187.4771 
4    171.000     13.049    225.000      0.300    207.000      2.489    213.000      1.540    429.5366 
4    174.000     12.474    228.000      0.186    186.000      8.588    192.000      6.407    182.4380 
4    174.000     12.474    228.000      0.186    210.000      2.014    216.000      1.065    451.3157 
4    177.000     11.864    231.000      0.071    189.000      7.496    195.000      5.405    213.0296 
4    177.000     11.864    231.000      0.071    213.000      1.540    219.000      0.591    488.0121 
4    180.000     10.772    234.000      0.000    192.000      6.407    198.000      4.404    410.4116 
4    180.000     10.772    234.000      0.000    216.000      1.065    222.000      0.415    571.1071 
4    183.000      9.680    237.000      0.000    219.000      0.591    225.000      0.300    668.4403 
4    183.000      9.680    237.000      0.000    195.000      5.405    201.000      3.438    933.0162 
4    186.000      8.588    240.000      0.000    222.000      0.415    228.000      0.186    723.7056 
4    186.000      8.588    240.000      0.000    198.000      4.404    204.000      2.964    591.3365 
4      0.000     38.050    108.000     19.723     84.000     26.311     96.000     23.015   1295.2286 
4      0.000     38.050    108.000     19.723     12.000     38.412     24.000     38.775    173.0503 
4      3.000     38.141    111.000     19.211     87.000     25.686     99.000     22.085   1562.3386 
4      3.000     38.141    111.000     19.211     15.000     38.503     27.000     38.865    157.7539 
4      6.000     38.231    114.000     18.726     90.000     24.876    102.000     21.155   1404.0635 
4      6.000     38.231    114.000     18.726     18.000     38.593     30.000     38.956    157.5632 
4      9.000     38.322    117.000     18.242     93.000     23.945    105.000     20.420   1408.7705 
4      9.000     38.322    117.000     18.242     21.000     38.684     33.000     37.920    159.5869 
4     12.000     38.412    120.000     17.899     24.000     38.775     36.000     36.829    153.1458 
4     12.000     38.412    120.000     17.899     96.000     23.015    108.000     19.723   1278.3436 
4     18.000     38.593    126.000     17.233    102.000     21.155    114.000     18.726   1259.3362 
4     18.000     38.593    126.000     17.233     30.000     38.956     42.000     34.647    116.3943 
4     24.000     38.775    132.000     16.567     36.000     36.829     48.000     33.483     77.7678 
4     24.000     38.775    132.000     16.567    108.000     19.723    120.000     17.899   1228.0896 
4     30.000     38.956    138.000     16.186    114.000     18.726    126.000     17.233    641.9062 
4     30.000     38.956    138.000     16.186     42.000     34.647     54.000     33.388     84.7001 
4     36.000     36.829    144.000     15.808    120.000     17.899    132.000     16.567    347.0236 
4     36.000     36.829    144.000     15.808     48.000     33.483     60.000     33.292    100.2690 
4     42.000     34.647    150.000     15.429    126.000     17.233    138.000     16.186    191.9822 
4     42.000     34.647    150.000     15.429     54.000     33.388     66.000     31.548     94.1918 
4     48.000     33.483    156.000     15.096    132.000     16.567    144.000     15.808    158.0116 
4     48.000     33.483    156.000     15.096     60.000     33.292     72.000     28.980    117.2029 
4     54.000     33.388    162.000     14.763    138.000     16.186    150.000     15.429    127.4611 
4     54.000     33.388    162.000     14.763     66.000     31.548     78.000     27.561    197.7624 
4     60.000     33.292    168.000     13.623    144.000     15.808    156.000     15.096     92.4668 
4     60.000     33.292    168.000     13.623     72.000     28.980     84.000     26.311    136.8105 
4     63.000     32.832    171.000     13.049     75.000     28.185     87.000     25.686    140.8944 
4     63.000     32.832    171.000     13.049    147.000     15.618    159.000     14.930     98.7832 
4     66.000     31.548    174.000     12.474    150.000     15.429    162.000     14.763    214.3618 
4     66.000     31.548    174.000     12.474     78.000     27.561     90.000     24.876    207.7707 
4     69.000     30.264    177.000     11.864     81.000     26.936     93.000     23.945    305.1689 
4     69.000     30.264    177.000     11.864    153.000     15.262    165.000     14.197    127.6169 
4     72.000     28.980    180.000     10.772     84.000     26.311     96.000     23.015    347.2376 
4     72.000     28.980    180.000     10.772    156.000     15.096    168.000     13.623    149.2074 
4     78.000     27.561    186.000      8.588    162.000     14.763    174.000     12.474    136.2340 
4     78.000     27.561    186.000      8.588     90.000     24.876    102.000     21.155    544.3317 
4     84.000     26.311    192.000      6.407    168.000     13.623    180.000     10.772    341.0192 
4     84.000     26.311    192.000      6.407     96.000     23.015    108.000     19.723    987.6310 
4     90.000     24.876    198.000      4.404    102.000     21.155    114.000     18.726   1070.0649 
4     90.000     24.876    198.000      4.404    174.000     12.474    186.000      8.588    564.1343 
4     96.000     23.015    204.000      2.964    108.000     19.723    120.000     17.899   1186.0880 
4     96.000     23.015    204.000      2.964    180.000     10.772    192.000      6.407    385.3577 
4    102.000     21.155    210.000      2.014    186.000      8.588    198.000      4.404    264.0437 
4    102.000     21.155    210.000      2.014    114.000     18.726    126.000     17.233   1345.9108 
4    108.000     19.723    216.000      1.065    120.000     17.899    132.000     16.567   1262.4504 
4    108.000     19.723    216.000      1.065    192.000      6.407    204.000      2.964    276.3903 
4    114.000     18.726    222.000      0.415    198.000      4.404    210.000      2.014    388.6075 
4    114.000     18.726    222.000      0.415    126.000     17.233    138.000     16.186   1344.6455 
4    120.000     17.899    228.000      0.186    204.000      2.964    216.000      1.065    513.4448 
4    120.000     17.899    228.000      0.186    132.000     16.567    144.000     15.808   1375.8264 
4    123.000     17.566    231.000      0.071    207.000      2.489    219.000      0.591    560.4827 
4    123.000     17.566    231.000      0.071    135.000     16.375    147.000     15.618   1149.9581 
4    126.000     17.233    234.000      0.000    138.000     16.186    150.000     15.429    747.4783 
4    126.000     17.233    234.000      0.000    210.000      2.014    222.000      0.415    620.8937 
4    129.000     16.900    237.000      0.000    141.000     15.997    153.000     15.262    524.2029 
4    129.000     16.900    237.000      0.000    213.000      1.540    225.000      0.300    718.9442 
4    132.000     16.567    240.000      0.000    144.000     15.808    156.000     15.096    349.1872 
4    132.000     16.567    240.000      0.000    216.000      1.065    228.000      0.186    785.5969 
4      0.000     38.050     54.000     33.388     30.000     38.956     36.000     36.829    142.9427 
4      0.000     38.050     54.000     33.388     18.000     38.593     24.000     38.775    146.9050 
4      3.000     38.141     57.000     33.340     21.000     38.684     27.000     38.865    143.9089 
4      3.000     38.141     57.000     33.340     33.000     37.920     39.000     35.738    120.0803 
4      6.000     38.231     60.000     33.292     24.000     38.775     30.000     38.956    164.6978 
4      6.000     38.231     60.000     33.292     36.000     36.829     42.000     34.647     98.5010 
4      9.000     38.322     63.000     32.832     27.000     38.865     33.000     37.920    182.0324 
4      9.000     38.322     63.000     32.832     39.000     35.738     45.000     33.556     98.8791 
4     12.000     38.412     66.000     31.548     42.000     34.647     48.000     33.483    101.6974 
4     12.000     38.412     66.000     31.548     30.000     38.956     36.000     36.829    156.3112 
4     15.000     38.503     69.000     30.264     33.000     37.920     39.000     35.738    121.2497 
4     15.000     38.503     69.000     30.264     45.000     33.556     51.000     33.435    103.2582 
4     18.000     38.593     72.000     28.980     48.000     33.483     54.000     33.388    114.3918 
4     18.000     38.593     72.000     28.980     36.000     36.829     42.000     34.647     90.8527 
4     21.000     38.684     75.000     28.185     39.000     35.738     45.000     33.556     82.4108 
4     21.000     38.684     75.000     28.185     51.000     33.435     57.000     33.340    124.9473 
4     24.000     38.775     78.000     27.561     54.000     33.388     60.000     33.292    113.0686 
4     24.000     38.775     78.000     27.561     42.000     34.647     48.000     33.483     81.8883 
4     27.000     38.865     81.000     26.936     57.000     33.340     63.000     32.832     89.7815 
4     27.000     38.865     81.000     26.936     45.000     33.556     51.000     33.435     88.9759 
4     30.000     38.956     84.000     26.311     60.000     33.292     66.000     31.548    144.1707 
4     30.000     38.956     84.000     26.311     48.000     33.483     54.000     33.388     99.1246 
4     33.000     37.920     87.000     25.686     63.000     32.832     69.000     30.264    308.1169 
4     33.000     37.920     87.000     25.686     51.000     33.435     57.000     33.340    107.9010 
4     36.000     36.829     90.000     24.876     54.000     33.388     60.000     33.292    104.6722 
4     36.000     36.829     90.000     24.876     66.000     31.548     72.000     28.980    326.8254 
4     39.000     35.738     93.000     23.945     57.000     33.340     63.000     32.832     81.2850 
4     39.000     35.738     93.000     23.945     69.000     30.264     75.000     28.185    322.0573 
4     42.000     34.647     96.000     23.015     72.000     28.980     78.000     27.561    360.6286 
4     42.000     34.647     96.000     23.015     60.000     33.292     66.000     31.548    104.9101 
4     45.000     33.556     99.000     22.085     63.000     32.832     69.000     30.264    184.8618 
4     45.000     33.556     99.000     22.085     75.000     28.185     81.000     26.936    499.8999 
4     48.000     33.483    102.000     21.155     66.000     31.548     72.000     28.980    170.7944 
4     48.000     33.483    102.000     21.155     78.000     27.561     84.000     26.311    682.6135 
4     51.000     33.435    105.000     20.420     69.000     30.264     75.000     28.185    128.3904 
4     51.000     33.435    105.000     20.420     81.000     26.936     87.000     25.686    770.1638 
4     54.000     33.388    108.000     19.723     72.000     28.980     78.000     27.561    152.0455 
4     54.000     33.388    108.000     19.723     84.000     26.311     90.000     24.876    836.6553 
4     57.000     33.340    111.000     19.211     75.000     28.185     81.000     26.936    190.5903 
4     57.000     33.340    111.000     19.211     87.000     25.686     93.000     23.945    936.7755 
4     60.000     33.292    114.000     18.726     78.000     27.561     84.000     26.311    216.8370 
4     60.000     33.292    114.000     18.726     90.000     24.876     96.000     23.015    811.9484 
4     63.000     32.832    117.000     18.242     93.000     23.945     99.000     22.085    873.2859 
4     63.000     32.832    117.000     18.242     81.000     26.936     87.000     25.686    227.3505 
4     66.000     31.548    120.000     17.899     96.000     23.015    102.000     21.155    852.9252 
4     66.000     31.548    120.000     17.899     84.000     26.311     90.000     24.876    240.9280 
4     69.000     30.264    123.000     17.566     99.000     22.085    105.000     20.420    764.7868 
4     69.000     30.264    123.000     17.566     87.000     25.686     93.000     23.945    322.1801 
4     72.000     28.980    126.000     17.233    102.000     21.155    108.000     19.723    792.9868 
4     72.000     28.980    126.000     17.233     90.000     24.876     96.000     23.015    367.3660 
4     75.000     28.185    129.000     16.900    105.000     20.420    111.000     19.211    680.9332 
4     75.000     28.185    129.000     16.900     93.000     23.945     99.000     22.085    420.1921 
4     78.000     27.561    132.000     16.567    108.000     19.723    114.000     18.726    791.4035 
4     78.000     27.561    132.000     16.567     96.000     23.015    102.000     21.155    446.0914 
4     81.000     26.936    135.000     16.375     99.000     22.085    105.000     20.420    519.4496 
4     81.000     26.936    135.000     16.375    111.000     19.211    117.000     18.242    731.1969 
4     84.000     26.311    138.000     16.186    114.000     18.726    120.000     17.899    598.1912 
4     84.000     26.311    138.000     16.186    102.000     21.155    108.000     19.723    580.2927 
4     87.000     25.686    141.000     15.997    105.000     20.420    111.000     19.211    582.8229 
4     87.000     25.686    141.000     15.997    117.000     18.242    123.000     17.566    482.6316 
4     90.000     24.876    144.000     15.808    108.000     19.723    114.000     18.726    726.7441 
4     90.000     24.876    144.000     15.808    120.000     17.899    126.000     17.233    305.7958 
4     93.000     23.945    147.000     15.618    111.000     19.211    117.000     18.242    898.1479 
4     93.000     23.945    147.000     15.618    123.000     17.566    129.000     16.900    225.9145 
4     96.000     23.015    150.000     15.429    114.000     18.726    120.000     17.899    787.7747 
4     96.000     23.015    150.000     15.429    126.000     17.233    132.000     16.567    263.1597 
4     99.000     22.085    153.000     15.262    117.000     18.242    123.000     17.566    900.9269 
4     99.000     22.085    153.000     15.262    129.000     16.900    135.000     16.375    287.9545 
4    102.000     21.155    156.000     15.096    120.000     17.899    126.000     17.233    785.7325 
4    102.000     21.155    156.000     15.096    132.000     16.567    138.000     16.186    285.8729 
4    105.000     20.420    159.000     14.930    135.000     16.375    141.000     15.997    265.5283 
4    105.000     20.420    159.000     14.930    123.000     17.566    129.000     16.900    699.1774 
4    108.000     19.723    162.000     14.763    138.000     16.186    144.000     15.808    231.4615 
4    108.000     19.723    162.000     14.763    126.000     17.233    132.000     16.567    799.5594 
4    111.000     19.211    165.000     14.197    129.000     16.900    135.000     16.375    806.0932 
4    111.000     19.211    165.000     14.197    141.000     15.997    147.000     15.618    182.9343 
4    114.000     18.726    168.000     13.623    132.000     16.567    138.000     16.186    923.4236 
4    114.000     18.726    168.000     13.623    144.000     15.808    150.000     15.429    121.2445 
4    117.000     18.242    171.000     13.049    147.000     15.618    153.000     15.262    100.8557 
4    117.000     18.242    171.000     13.049    135.000     16.375    141.000     15.997    834.8652 
4    120.000     17.899    174.000     12.474    150.000     15.429    156.000     15.096    139.9728 
4    120.000     17.899    174.000     12.474    138.000     16.186    144.000     15.808    693.3351 
4    123.000     17.566    177.000     11.864    141.000     15.997    147.000     15.618    533.0536 
4    123.000     17.566    177.000     11.864    153.000     15.262    159.000     14.930    144.5406 
4    126.000     17.233    180.000     10.772    144.000     15.808    150.000     15.429    158.1282 
4    129.000     16.900    183.000      9.680    147.000     15.618    153.000     15.262    153.1063 
4    129.000     16.900    183.000      9.680    159.000     14.930    165.000     14.197    156.1832 
4    132.000     16.567    186.000      8.588    150.000     15.429    156.000     15.096    192.4209 
4    132.000     16.567    186.000      8.588    162.000     14.763    168.000     13.623    163.0724 
4    135.000     16.375    189.000      7.496    153.000     15.262    159.000     14.930    192.4422 
4    135.000     16.375    189.000      7.496    165.000     14.197    171.000     13.049    132.4790 
4    138.000     16.186    192.000      6.407    156.000     15.096    162.000     14.763    169.7859 
4    138.000     16.186    192.000      6.407    168.000     13.623    174.000     12.474    108.4587 
4    141.000     15.997    195.000      5.405    171.000     13.049    177.000     11.864    142.8238 
4    141.000     15.997    195.000      5.405    159.000     14.930    165.000     14.197    166.2495 
4    144.000     15.808    198.000      4.404    162.000     14.763    168.000     13.623    167.3411 
4    144.000     15.808    198.000      4.404    174.000     12.474    180.000     10.772    169.9113 
4    147.000     15.618    201.000      3.438    165.000     14.197    171.000     13.049    134.9090 
4    147.000     15.618    201.000      3.438    177.000     11.864    183.000      9.680    232.7827 
4    150.000     15.429    204.000      2.964    180.000     10.772    186.000      8.588    369.3177 
4    150.000     15.429    204.000      2.964    168.000     13.623    174.000     12.474    102.0067 
4    153.000     15.262    207.000      2.489    171.000     13.049    177.000     11.864    122.3939 
4    153.000     15.262    207.000      2.489    183.000      9.680    189.000      7.496    372.1743 
4    156.000     15.096    210.000      2.014    186.000      8.588    192.000      6.407    296.2388 
4    156.000     15.096    210.000      2.014    174.000     12.474    180.000     10.772    136.0606 
4    159.000     14.930    213.000      1.540    177.000     11.864    183.000      9.680    149.2361 
4    159.000     14.930    213.000      1.540    189.000      7.496    195.000      5.405    235.2738 
4    162.000     14.763    216.000      1.065    180.000     10.772    186.000      8.588    225.9135 
4    162.000     14.763    216.000      1.065    192.000      6.407    198.000      4.404    210.3268 
4    165.000     14.197    219.000      0.591    195.000      5.405    201.000      3.438    254.0968 
4    165.000     14.197    219.000      0.591    183.000      9.680    189.000      7.496    261.4426 
4    168.000     13.623    222.000      0.415    186.000      8.588    192.000      6.407    237.9329 
4    168.000     13.623    222.000      0.415    198.000      4.404    204.000      2.964    291.5116 
4    171.000     13.049    225.000      0.300    201.000      3.438    207.000      2.489    340.5135 
4    171.000     13.049    225.000      0.300    189.000      7.496    195.000      5.405    197.4350 
4    174.000     12.474    228.000      0.186    192.000      6.407    198.000      4.404    173.7553 
4    174.000     12.474    228.000      0.186    204.000      2.964    210.000      2.014    456.0376 
4    177.000     11.864    231.000      0.071    207.000      2.489    213.000      1.540    504.7211 
4    177.000     11.864    231.000      0.071    195.000      5.405    201.000      3.438    210.4308 
4    180.000     10.772    234.000      0.000    210.000      2.014    216.000      1.065    505.8359 
4    180.000     10.772    234.000      0.000    198.000      4.404    204.000      2.964    244.9246 
4    183.000      9.680    237.000      0.000    201.000      3.438    207.000      2.489    309.1225 
4    183.000      9.680    237.000      0.000    213.000      1.540    219.000      0.591    575.0676 
4    186.000      8.588    240.000      0.000    204.000      2.964    210.000      2.014    420.3828 
4    186.000      8.588    240.000      0.000    216.000      1.065    222.000      0.415    652.0546 
4      0.000     38.050    234.000      0.000    198.000      4.404    216.000      1.065    642.3972 
4      0.000     38.050    234.000      0.000     18.000     38.593     36.000     36.829    185.5863 
4      6.000     38.231    240.000      0.000    204.000      2.964    222.000      0.415    794.2860 
4      6.000     38.231    240.000      0.000     24.000     38.775     42.000     34.647    176.6199 
4      0.000     38.050    216.000      1.065     18.000     38.593     36.000     36.829    186.0390 
4      0.000     38.050    216.000      1.065    180.000     10.772    198.000      4.404    372.9679 
4      6.000     38.231    222.000      0.415     24.000     38.775     42.000     34.647    178.2282 
4      6.000     38.231    222.000      0.415    186.000      8.588    204.000      2.964    387.0260 
4     12.000     38.412    228.000      0.186     30.000     38.956     48.000     33.483    143.7999 
4     12.000     38.412    228.000      0.186    192.000      6.407    210.000      2.014    513.5969 
4     18.000     38.593    234.000      0.000     36.000     36.829     54.000     33.388    109.1785 
4     18.000     38.593    234.000      0.000    198.000      4.404    216.000      1.065    641.6339 
4     24.000     38.775    240.000      0.000    204.000      2.964    222.000      0.415    793.3150 
4     24.000     38.775    240.000      0.000     42.000     34.647     60.000     33.292    100.3718 
4      0.000     38.050    198.000      4.404     18.000     38.593     36.000     36.829    187.5333 
4      0.000     38.050    198.000      4.404    162.000     14.763    180.000     10.772    197.4120 
4      6.000     38.231    204.000      2.964     24.000     38.775     42.000     34.647    179.1838 
4      6.000     38.231    204.000      2.964    168.000     13.623    186.000      8.588    341.7253 
4     12.000     38.412    210.000      2.014    174.000     12.474    192.000      6.407    381.3318 
4     12.000     38.412    210.000      2.014     30.000     38.956     48.000     33.483    144.5880 
4     18.000     38.593    216.000      1.065    180.000     10.772    198.000      4.404    372.6621 
4     18.000     38.593    216.000      1.065     36.000     36.829     54.000     33.388    110.3316 
4     24.000     38.775    222.000      0.415    186.000      8.588    204.000      2.964    386.4919 
4     24.000     38.775    222.000      0.415     42.000     34.647     60.000     33.292    101.9235 
4     30.000     38.956    228.000      0.186     48.000     33.483     66.000     31.548    128.2035 
4     30.000     38.956    228.000      0.186    192.000      6.407    210.000      2.014    512.6400 
4     36.000     36.829    234.000      0.000    198.000      4.404    216.000      1.065    640.2728 
4     36.000     36.829    234.000      0.000     54.000     33.388     72.000     28.980    139.8566 
4     42.000     34.647    240.000      0.000    204.000      2.964    222.000      0.415    791.4562 
4      0.000     38.050    180.000     10.772     18.000     38.593     36.000     36.829    190.4245 
4      6.000     38.231    186.000      8.588    150.000     15.429    168.000     13.623    181.5129 
4      6.000     38.231    186.000      8.588     24.000     38.775     42.000     34.647    177.5937 
4     12.000     38.412    192.000      6.407    156.000     15.096    174.000     12.474    165.4736 
4     12.000     38.412    192.000      6.407     30.000     38.956     48.000     33.483    144.8927 
4     18.000     38.593    198.000      4.404     36.000     36.829     54.000     33.388    110.8774 
4     18.000     38.593    198.000      4.404    162.000     14.763    180.000     10.772    197.4884 
4     24.000     38.775    204.000      2.964    168.000     13.623    186.000      8.588    341.0314 
4     24.000     38.775    204.000      2.964     42.000     34.647     60.000     33.292    102.9501 
4     30.000     38.956    210.000      2.014    174.000     12.474    192.000      6.407    380.7164 
4     30.000     38.956    210.000      2.014     48.000     33.483     66.000     31.548    128.8501 
4     36.000     36.829    216.000      1.065     54.000     33.388     72.000     28.980    141.6344 
4     36.000     36.829    216.000      1.065    180.000     10.772    198.000      4.404    371.9154 
4     42.000     34.647    222.000      0.415    186.000      8.588    204.000      2.964    385.4768 
4     48.000     33.483    228.000      0.186     66.000     31.548     84.000     26.311    149.5915 
4     48.000     33.483    228.000      0.186    192.000      6.407    210.000      2.014    510.7404 
4     54.000     33.388    234.000      0.000    198.000      4.404    216.000      1.065    637.9717 
4     54.000     33.388    234.000      0.000     72.000     28.980     90.000     24.876    127.3747 
4     60.000     33.292    240.000      0.000     78.000     27.561     96.000     23.015    142.6034 
4     60.000     33.292    240.000      0.000    204.000      2.964    222.000      0.415    788.3994 
4      0.000     38.050    162.000     14.763     18.000     38.593     36.000     36.829    190.2237 
4      0.000     38.050    162.000     14.763    126.000     17.233    144.000     15.808    134.1787 
4      6.000     38.231    168.000     13.623    132.000     16.567    150.000     15.429    121.1133 
4      6.000     38.231    168.000     13.623     24.000     38.775     42.000     34.647    179.1476 
4     12.000     38.412    174.000     12.474     30.000     38.956     48.000     33.483    145.5777 
4     12.000     38.412    174.000     12.474    138.000     16.186    156.000     15.096    120.7944 
4     18.000     38.593    180.000     10.772     36.000     36.829     54.000     33.388    111.2945 
4     24.000     38.775    186.000      8.588     42.000     34.647     60.000     33.292    104.1818 
4     24.000     38.775    186.000      8.588    150.000     15.429    168.000     13.623    181.6386 
4     30.000     38.956    192.000      6.407     48.000     33.483     66.000     31.548    125.5259 
4     30.000     38.956    192.000      6.407    156.000     15.096    174.000     12.474    165.6811 
4     36.000     36.829    198.000      4.404     54.000     33.388     72.000     28.980    142.4299 
4     36.000     36.829    198.000      4.404    162.000     14.763    180.000     10.772    197.2647 
4     42.000     34.647    204.000      2.964    168.000     13.623    186.000      8.588    339.8748 
4     48.000     33.483    210.000      2.014    174.000     12.474    192.000      6.407    379.0527 
4     48.000     33.483    210.000      2.014     66.000     31.548     84.000     26.311    150.9772 
4     54.000     33.388    216.000      1.065    180.000     10.772    198.000      4.404    370.0810 
4     54.000     33.388    216.000      1.065     72.000     28.980     90.000     24.876    130.5536 
4     60.000     33.292    222.000      0.415    186.000      8.588    204.000      2.964    382.7807 
4     60.000     33.292    222.000      0.415     78.000     27.561     96.000     23.015     90.6256 
4     66.000     31.548    228.000      0.186    192.000      6.407    210.000      2.014    508.1065 
4     66.000     31.548    228.000      0.186     84.000     26.311    102.000     21.155    154.6067 
4     72.000     28.980    234.000      0.000    198.000      4.404    216.000      1.065    635.0529 
4     72.000     28.980    234.000      0.000     90.000     24.876    108.000     19.723    258.6843 
4     78.000     27.561    240.000      0.000     96.000     23.015    114.000     18.726    330.6607 
4     78.000     27.561    240.000      0.000    204.000      2.964    222.000      0.415    784.9941 
4      0.000     38.050     54.000     33.388     24.000     38.775     30.000     38.956    153.8403 
4      3.000     38.141     57.000     33.340     27.000     38.865     33.000     37.920    170.5376 
4      6.000     38.231     60.000     33.292     30.000     38.956     36.000     36.829    160.4388 
4      9.000     38.322     63.000     32.832     33.000     37.920     39.000     35.738    138.2909 
4     12.000     38.412     66.000     31.548     36.000     36.829     42.000     34.647    103.6956 
4     15.000     38.503     69.000     30.264     39.000     35.738     45.000     33.556     88.7799 
4     18.000     38.593     72.000     28.980     42.000     34.647     48.000     33.483     89.3510 
4     21.000     38.684     75.000     28.185     45.000     33.556     51.000     33.435     99.6568 
4     24.000     38.775     78.000     27.561     48.000     33.483     54.000     33.388    107.3501 
4     27.000     38.865     81.000     26.936     51.000     33.435     57.000     33.340    111.0265 
4     30.000     38.956     84.000     26.311     54.000     33.388     60.000     33.292    104.0051 
4     33.000     37.920     87.000     25.686     57.000     33.340     63.000     32.832     86.6171 
4     36.000     36.829     90.000     24.876     60.000     33.292     66.000     31.548    128.8378 
4     39.000     35.738     93.000     23.945     63.000     32.832     69.000     30.264    238.2991 
4     42.000     34.647     96.000     23.015     66.000     31.548     72.000     28.980    222.9393 
4     45.000     33.556     99.000     22.085     69.000     30.264     75.000     28.185    185.8536 
4     48.000     33.483    102.000     21.155     72.000     28.980     78.000     27.561    203.9579 
4     51.000     33.435    105.000     20.420     75.000     28.185     81.000     26.936    273.3095 
4     54.000     33.388    108.000     19.723     78.000     27.561     84.000     26.311    399.4070 
4     57.000     33.340    111.000     19.211     81.000     26.936     87.000     25.686    470.3869 
4     60.000     33.292    114.000     18.726     84.000     26.311     90.000     24.876    430.9348 
4     63.000     32.832    117.000     18.242     87.000     25.686     93.000     23.945    461.1695 
4     66.000     31.548    120.000     17.899     90.000     24.876     96.000     23.015    444.0164 
4     69.000     30.264    123.000     17.566     93.000     23.945     99.000     22.085    471.5028 
4     72.000     28.980    126.000     17.233     96.000     23.015    102.000     21.155    521.6237 
4     75.000     28.185    129.000     16.900     99.000     22.085    105.000     20.420    509.3188 
4     78.000     27.561    132.000     16.567    102.000     21.155    108.000     19.723    473.3123 
4     81.000     26.936    135.000     16.375    105.000     20.420    111.000     19.211    422.9049 
4     84.000     26.311    138.000     16.186    108.000     19.723    114.000     18.726    503.2832 
4     87.000     25.686    141.000     15.997    111.000     19.211    117.000     18.242    543.3121 
4     90.000     24.876    144.000     15.808    114.000     18.726    120.000     17.899    472.3661 
4     93.000     23.945    147.000     15.618    117.000     18.242    123.000     17.566    479.8607 
4     96.000     23.015    150.000     15.429    120.000     17.899    126.000     17.233    408.7677 
4     99.000     22.085    153.000     15.262    123.000     17.566    129.000     16.900    389.6844 
4    102.000     21.155    156.000     15.096    126.000     17.233    132.000     16.567    465.9308 
4    105.000     20.420    159.000     14.930    129.000     16.900    135.000     16.375    496.1128 
4    108.000     19.723    162.000     14.763    132.000     16.567    138.000     16.186    485.6400 
4    111.000     19.211    165.000     14.197    135.000     16.375    141.000     15.997    450.2028 
4    114.000     18.726    168.000     13.623    138.000     16.186    144.000     15.808    399.8594 
4    117.000     18.242    171.000     13.049    141.000     15.997    147.000     15.618    319.7590 
4    120.000     17.899    174.000     12.474    144.000     15.808    150.000     15.429    209.2120 
4    123.000     17.566    177.000     11.864    147.000     15.618    153.000     15.262    132.9561 
4    129.000     16.900    183.000      9.680    153.000     15.262    159.000     14.930    173.3443 
4    132.000     16.567    186.000      8.588    156.000     15.096    162.000     14.763    161.9543 
4    135.000     16.375    189.000      7.496    159.000     14.930    165.000     14.197    165.8603 
4    138.000     16.186    192.000      6.407    162.000     14.763    168.000     13.623    168.4046 
4    141.000     15.997    195.000      5.405    165.000     14.197    171.000     13.049    139.3193 
4    144.000     15.808    198.000      4.404    168.000     13.623    174.000     12.474    113.5546 
4    147.000     15.618    201.000      3.438    171.000     13.049    177.000     11.864    138.6668 
4    150.000     15.429    204.000      2.964    174.000     12.474    180.000     10.772    156.2538 
4    153.000     15.262    207.000      2.489    177.000     11.864    183.000      9.680    189.4957 
4    156.000     15.096    210.000      2.014    180.000     10.772    186.000      8.588    292.2522 
4    159.000     14.930    213.000      1.540    183.000      9.680    189.000      7.496    316.6801 
4    162.000     14.763    216.000      1.065    186.000      8.588    192.000      6.407    275.9918 
4    165.000     14.197    219.000      0.591    189.000      7.496    195.000      5.405    231.2139 
4    168.000     13.623    222.000      0.415    192.000      6.407    198.000      4.404    205.4609 
4    171.000     13.049    225.000      0.300    195.000      5.405    201.000      3.438    246.3354 
4    174.000     12.474    228.000      0.186    198.000      4.404    204.000      2.964    285.0501 
4    177.000     11.864    231.000      0.071    201.000      3.438    207.000      2.489    327.6724 
4    180.000     10.772    234.000      0.000    204.000      2.964    210.000      2.014    421.0915 
4    183.000      9.680    237.000      0.000    207.000      2.489    213.000      1.540    496.3691 
4    186.000      8.588    240.000      0.000    210.000      2.014    216.000      1.065    493.4135 
4      0.000     38.050    108.000     19.723     24.000     38.775     36.000     36.829    204.8068 
4      0.000     38.050    108.000     19.723     72.000     28.980     84.000     26.311    501.5657 
4      3.000     38.141    111.000     19.211     27.000     38.865     39.000     35.738    202.0735 
4      3.000     38.141    111.000     19.211     75.000     28.185     87.000     25.686    598.4280 
4      6.000     38.231    114.000     18.726     30.000     38.956     42.000     34.647    170.0076 
4      6.000     38.231    114.000     18.726     78.000     27.561     90.000     24.876    594.3350 
4      9.000     38.322    117.000     18.242     81.000     26.936     93.000     23.945    649.5983 
4      9.000     38.322    117.000     18.242     33.000     37.920     45.000     33.556    146.7326 
4     12.000     38.412    120.000     17.899     84.000     26.311     96.000     23.015    607.9124 
4     12.000     38.412    120.000     17.899     36.000     36.829     48.000     33.483    122.4114 
4     18.000     38.593    126.000     17.233     42.000     34.647     54.000     33.388    122.7407 
4     18.000     38.593    126.000     17.233     90.000     24.876    102.000     21.155    664.6640 
4     24.000     38.775    132.000     16.567     48.000     33.483     60.000     33.292    127.4397 
4     24.000     38.775    132.000     16.567     96.000     23.015    108.000     19.723    608.8584 
4     30.000     38.956    138.000     16.186    102.000     21.155    114.000     18.726    437.7602 
4     30.000     38.956    138.000     16.186     54.000     33.388     66.000     31.548    130.8166 
4     36.000     36.829    144.000     15.808    108.000     19.723    120.000     17.899    269.9135 
4     36.000     36.829    144.000     15.808     60.000     33.292     72.000     28.980    171.5601 
4     42.000     34.647    150.000     15.429     66.000     31.548     78.000     27.561    171.6975 
4     42.000     34.647    150.000     15.429    114.000     18.726    126.000     17.233    190.1710 
4     48.000     33.483    156.000     15.096    120.000     17.899    132.000     16.567    164.7441 
4     48.000     33.483    156.000     15.096     72.000     28.980     84.000     26.311    140.3691 
4     54.000     33.388    162.000     14.763    126.000     17.233    138.000     16.186    141.3187 
4     54.000     33.388    162.000     14.763     78.000     27.561     90.000     24.876    153.2798 
4     60.000     33.292    168.000     13.623     84.000     26.311     96.000     23.015    143.9645 
4     60.000     33.292    168.000     13.623    132.000     16.567    144.000     15.808    156.4738 
4     63.000     32.832    171.000     13.049     87.000     25.686     99.000     22.085    150.4250 
4     63.000     32.832    171.000     13.049    135.000     16.375    147.000     15.618    153.9234 
4     66.000     31.548    174.000     12.474     90.000     24.876    102.000     21.155    167.3135 
4     66.000     31.548    174.000     12.474    138.000     16.186    150.000     15.429    113.6704 
4     69.000     30.264    177.000     11.864    141.000     15.997    153.000     15.262    135.7144 
4     69.000     30.264    177.000     11.864     93.000     23.945    105.000     20.420    206.0351 
4     72.000     28.980    180.000     10.772     96.000     23.015    108.000     19.723    244.6624 
4     78.000     27.561    186.000      8.588    150.000     15.429    162.000     14.763    182.4422 
4     78.000     27.561    186.000      8.588    102.000     21.155    114.000     18.726    252.6069 
4     84.000     26.311    192.000      6.407    156.000     15.096    168.000     13.623    204.0804 
4     84.000     26.311    192.000      6.407    108.000     19.723    120.000     17.899    418.9855 
4     90.000     24.876    198.000      4.404    162.000     14.763    174.000     12.474    189.7292 
4     90.000     24.876    198.000      4.404    114.000     18.726    126.000     17.233    529.0252 
4     96.000     23.015    204.000      2.964    120.000     17.899    132.000     16.567    566.8161 
4     96.000     23.015    204.000      2.964    168.000     13.623    180.000     10.772    204.9299 
4    102.000     21.155    210.000      2.014    174.000     12.474    186.000      8.588    371.8919 
4    102.000     21.155    210.000      2.014    126.000     17.233    138.000     16.186    680.5214 
4    108.000     19.723    216.000      1.065    180.000     10.772    192.000      6.407    450.3835 
4    108.000     19.723    216.000      1.065    132.000     16.567    144.000     15.808    689.4674 
4    114.000     18.726    222.000      0.415    138.000     16.186    150.000     15.429    484.3625 
4    114.000     18.726    222.000      0.415    186.000      8.588    198.000      4.404    382.4977 
4    120.000     17.899    228.000      0.186    144.000     15.808    156.000     15.096    286.8210 
4    120.000     17.899    228.000      0.186    192.000      6.407    204.000      2.964    418.8707 
4    123.000     17.566    231.000      0.071    147.000     15.618    159.000     14.930    208.8131 
4    123.000     17.566    231.000      0.071    195.000      5.405    207.000      2.489    485.5382 
4    126.000     17.233    234.000      0.000    198.000      4.404    210.000      2.014    594.0817 
4    126.000     17.233    234.000      0.000    150.000     15.429    162.000     14.763    220.4710 
4    129.000     16.900    237.000      0.000    153.000     15.262    165.000     14.197    220.2798 
4    129.000     16.900    237.000      0.000    201.000      3.438    213.000      1.540    682.9677 
4    132.000     16.567    240.000      0.000    204.000      2.964    216.000      1.065    715.2129 
4    132.000     16.567    240.000      0.000    156.000     15.096    168.000     13.623    206.3157 
4      0.000     38.050    234.000      0.000    180.000     10.772    198.000      4.404    617.7165 
4      0.000     38.050    234.000      0.000     36.000     36.829     54.000     33.388    178.5941 
4      6.000     38.231    240.000      0.000    186.000      8.588    204.000      2.964    592.5466 
4      6.000     38.231    240.000      0.000     42.000     34.647     60.000     33.292    179.0941 
4      0.000     38.050    216.000      1.065    162.000     14.763    180.000     10.772    343.4015 
4      0.000     38.050    216.000      1.065     36.000     36.829     54.000     33.388    182.5522 
4      6.000     38.231    222.000      0.415    168.000     13.623    186.000      8.588    472.9224 
4      6.000     38.231    222.000      0.415     42.000     34.647     60.000     33.292    183.4092 
4     12.000     38.412    228.000      0.186     48.000     33.483     66.000     31.548    201.1259 
4     12.000     38.412    228.000      0.186    174.000     12.474    192.000      6.407    615.8856 
4     18.000     38.593    234.000      0.000    180.000     10.772    198.000      4.404    613.8193 
4     18.000     38.593    234.000      0.000     54.000     33.388     72.000     28.980    222.0350 
4     24.000     38.775    240.000      0.000    186.000      8.588    204.000      2.964    588.2471 
4     24.000     38.775    240.000      0.000     60.000     33.292     78.000     27.561    233.2444 
4      0.000     38.050    198.000      4.404    144.000     15.808    162.000     14.763    265.3155 
4      0.000     38.050    198.000      4.404     36.000     36.829     54.000     33.388    179.8039 
4      6.000     38.231    204.000      2.964     42.000     34.647     60.000     33.292    184.4185 
4      6.000     38.231    204.000      2.964    150.000     15.429    168.000     13.623    332.9426 
4     12.000     38.412    210.000      2.014     48.000     33.483     66.000     31.548    202.2974 
4     12.000     38.412    210.000      2.014    156.000     15.096    174.000     12.474    322.3209 
4     18.000     38.593    216.000      1.065    162.000     14.763    180.000     10.772    341.1783 
4     18.000     38.593    216.000      1.065     54.000     33.388     72.000     28.980    225.9252 
4     24.000     38.775    222.000      0.415     60.000     33.292     78.000     27.561    239.8824 
4     24.000     38.775    222.000      0.415    168.000     13.623    186.000      8.588    468.3426 
4     30.000     38.956    228.000      0.186    174.000     12.474    192.000      6.407    609.8537 
4     30.000     38.956    228.000      0.186     66.000     31.548     84.000     26.311    242.6879 
4     36.000     36.829    234.000      0.000    180.000     10.772    198.000      4.404    607.8029 
4     36.000     36.829    234.000      0.000     72.000     28.980     90.000     24.876    214.9923 
4     42.000     34.647    240.000      0.000    186.000      8.588    204.000      2.964    582.7832 
4     42.000     34.647    240.000      0.000     78.000     27.561     96.000     23.015    216.7869 
4      0.000     38.050    108.000     19.723     36.000     36.829     48.000     33.483    145.8044 
4      3.000     38.141    111.000     19.211     63.000     32.832     75.000     28.185    173.6419 
4      3.000     38.141    111.000     19.211     39.000     35.738     51.000     33.435    150.8996 
4      6.000     38.231    114.000     18.726     42.000     34.647     54.000     33.388    157.6880 
4      6.000     38.231    114.000     18.726     66.000     31.548     78.000     27.561    172.5193 
4      9.000     38.322    117.000     18.242     45.000     33.556     57.000     33.340    171.0478 
4     12.000     38.412    120.000     17.899     48.000     33.483     60.000     33.292    181.6789 
4     18.000     38.593    126.000     17.233     54.000     33.388     66.000     31.548    167.9502 
4     18.000     38.593    126.000     17.233     78.000     27.561     90.000     24.876    317.6652 
4     24.000     38.775    132.000     16.567     60.000     33.292     72.000     28.980    207.7385 
4     30.000     38.956    138.000     16.186     66.000     31.548     78.000     27.561    213.6286 
4     30.000     38.956    138.000     16.186     90.000     24.876    102.000     21.155    218.6191 
4     36.000     36.829    144.000     15.808     72.000     28.980     84.000     26.311    209.4039 
4     36.000     36.829    144.000     15.808     96.000     23.015    108.000     19.723    152.5289 
4     42.000     34.647    150.000     15.429     78.000     27.561     90.000     24.876    201.6034 
4     48.000     33.483    156.000     15.096     84.000     26.311     96.000     23.015    195.2151 
4     48.000     33.483    156.000     15.096    108.000     19.723    120.000     17.899    212.4401 
4     54.000     33.388    162.000     14.763     90.000     24.876    102.000     21.155    227.1945 
4     63.000     32.832    171.000     13.049    123.000     17.566    135.000     16.375    185.5307 
4     66.000     31.548    174.000     12.474    126.000     17.233    138.000     16.186    207.7941 
4     69.000     30.264    177.000     11.864    129.000     16.900    141.000     15.997    208.2141 
4     72.000     28.980    180.000     10.772    108.000     19.723    120.000     17.899    282.9611 
4     78.000     27.561    186.000      8.588    138.000     16.186    150.000     15.429    179.6651 
4     78.000     27.561    186.000      8.588    114.000     18.726    126.000     17.233    221.4995 
4     84.000     26.311    192.000      6.407    144.000     15.808    156.000     15.096    189.0477 
4     84.000     26.311    192.000      6.407    120.000     17.899    132.000     16.567    257.1736 
4     90.000     24.876    198.000      4.404    126.000     17.233    138.000     16.186    326.4280 
4     90.000     24.876    198.000      4.404    150.000     15.429    162.000     14.763    244.9811 
4     96.000     23.015    204.000      2.964    132.000     16.567    144.000     15.808    358.6084 
4     96.000     23.015    204.000      2.964    156.000     15.096    168.000     13.623    283.2888 
4    102.000     21.155    210.000      2.014    162.000     14.763    174.000     12.474    260.1478 
4    102.000     21.155    210.000      2.014    138.000     16.186    150.000     15.429    287.5626 
4    108.000     19.723    216.000      1.065    144.000     15.808    156.000     15.096    233.5925 
4    108.000     19.723    216.000      1.065    168.000     13.623    180.000     10.772    255.4093 
4    114.000     18.726    222.000      0.415    150.000     15.429    162.000     14.763    258.5786 
4    114.000     18.726    222.000      0.415    174.000     12.474    186.000      8.588    430.9190 
4    120.000     17.899    228.000      0.186    180.000     10.772    192.000      6.407    553.1584 
4    120.000     17.899    228.000      0.186    156.000     15.096    168.000     13.623    256.0033 
4    123.000     17.566    231.000      0.071    159.000     14.930    171.000     13.049    256.5681 
4    123.000     17.566    231.000      0.071    183.000      9.680    195.000      5.405    524.3625 
4    126.000     17.233    234.000      0.000    186.000      8.588    198.000      4.404    453.4337 
4    126.000     17.233    234.000      0.000    162.000     14.763    174.000     12.474    233.5796 
4    129.000     16.900    237.000      0.000    165.000     14.197    177.000     11.864    225.2324 
4    129.000     16.900    237.000      0.000    189.000      7.496    201.000      3.438    452.7519 
4    132.000     16.567    240.000      0.000    168.000     13.623    180.000     10.772    203.8874 
4    132.000     16.567    240.000      0.000    192.000      6.407    204.000      2.964    441.6619 
4      0.000     38.050    180.000     10.772     36.000     36.829     54.000     33.388    178.5904 
4      0.000     38.050    180.000     10.772    126.000     17.233    144.000     15.808    440.9467 
4      6.000     38.231    186.000      8.588     42.000     34.647     60.000     33.292    187.6315 
4      6.000     38.231    186.000      8.588    132.000     16.567    150.000     15.429    229.2717 
4     12.000     38.412    192.000      6.407    138.000     16.186    156.000     15.096    235.5161 
4     12.000     38.412    192.000      6.407     48.000     33.483     66.000     31.548    201.1800 
4     18.000     38.593    198.000      4.404    144.000     15.808    162.000     14.763    263.7905 
4     18.000     38.593    198.000      4.404     54.000     33.388     72.000     28.980    226.3886 
4     24.000     38.775    204.000      2.964     60.000     33.292     78.000     27.561    241.5447 
4     24.000     38.775    204.000      2.964    150.000     15.429    168.000     13.623    329.8081 
4     30.000     38.956    210.000      2.014     66.000     31.548     84.000     26.311    245.3148 
4     30.000     38.956    210.000      2.014    156.000     15.096    174.000     12.474    319.0006 
4     36.000     36.829    216.000      1.065    162.000     14.763    180.000     10.772    337.4199 
4     36.000     36.829    216.000      1.065     72.000     28.980     90.000     24.876    220.0743 
4     42.000     34.647    222.000      0.415     78.000     27.561     96.000     23.015    225.8167 
4     42.000     34.647    222.000      0.415    168.000     13.623    186.000      8.588    461.9341 
4     48.000     33.483    228.000      0.186    174.000     12.474    192.000      6.407    600.3553 
4     48.000     33.483    228.000      0.186     84.000     26.311    102.000     21.155    216.3405 
4     54.000     33.388    234.000      0.000    180.000     10.772    198.000      4.404    597.9993 
4     54.000     33.388    234.000      0.000     90.000     24.876    108.000     19.723    216.1014 
4     60.000     33.292    240.000      0.000    186.000      8.588    204.000      2.964    573.1230 
4      0.000     38.050    162.000     14.763     36.000     36.829     54.000     33.388    177.0649 
4      6.000     38.231    168.000     13.623    114.000     18.726    132.000     16.567    221.1291 
4      6.000     38.231    168.000     13.623     42.000     34.647     60.000     33.292    185.8882 
4     12.000     38.412    174.000     12.474    120.000     17.899    138.000     16.186    195.2072 
4     12.000     38.412    174.000     12.474     48.000     33.483     66.000     31.548    198.5317 
4     18.000     38.593    180.000     10.772    126.000     17.233    144.000     15.808    471.8316 
4     18.000     38.593    180.000     10.772     54.000     33.388     72.000     28.980    225.6001 
4     24.000     38.775    186.000      8.588     60.000     33.292     78.000     27.561    238.0109 
4     24.000     38.775    186.000      8.588    132.000     16.567    150.000     15.429    227.0821 
4     30.000     38.956    192.000      6.407    138.000     16.186    156.000     15.096    231.9895 
4     30.000     38.956    192.000      6.407     66.000     31.548     84.000     26.311    243.8119 
4     36.000     36.829    198.000      4.404    144.000     15.808    162.000     14.763    259.5680 
4     36.000     36.829    198.000      4.404     72.000     28.980     90.000     24.876    221.0917 
4     42.000     34.647    204.000      2.964    150.000     15.429    168.000     13.623    324.7273 
4     42.000     34.647    204.000      2.964     78.000     27.561     96.000     23.015    231.6357 
4     48.000     33.483    210.000      2.014    156.000     15.096    174.000     12.474    312.9797 
4     48.000     33.483    210.000      2.014     84.000     26.311    102.000     21.155    219.9059 
4     54.000     33.388    216.000      1.065    162.000     14.763    180.000     10.772    330.6940 
4     54.000     33.388    216.000      1.065     90.000     24.876    108.000     19.723    219.9475 
4     60.000     33.292    222.000      0.415    168.000     13.623    186.000      8.588    448.0283 
4     66.000     31.548    228.000      0.186    102.000     21.155    120.000     17.899    208.8768 
4     66.000     31.548    228.000      0.186    174.000     12.474    192.000      6.407    585.9584 
4     72.000     28.980    234.000      0.000    108.000     19.723    126.000     17.233    228.6716 
4     72.000     28.980    234.000      0.000    180.000     10.772    198.000      4.404    584.7258 
4     78.000     27.561    240.000      0.000    186.000      8.588    204.000      2.964    560.5395 
4     78.000     27.561    240.000      0.000    114.000     18.726    132.000     16.567    233.2928 
4      3.000     38.141    111.000     19.211     51.000     33.435     63.000     32.832    257.6244 
4      6.000     38.231    114.000     18.726     54.000     33.388     66.000     31.548    259.5825 
4     18.000     38.593    126.000     17.233     66.000     31.548     78.000     27.561    249.0298 
4     48.000     33.483    156.000     15.096     96.000     23.015    108.000     19.723    210.9680 
4     63.000     32.832    171.000     13.049    111.000     19.211    123.000     17.566    302.4894 
4     66.000     31.548    174.000     12.474    114.000     18.726    126.000     17.233    393.1429 
4     78.000     27.561    186.000      8.588    126.000     17.233    138.000     16.186    233.5083 
4     84.000     26.311    192.000      6.407    132.000     16.567    144.000     15.808    253.3116 
4     90.000     24.876    198.000      4.404    138.000     16.186    150.000     15.429    218.5764 
4     96.000     23.015    204.000      2.964    144.000     15.808    156.000     15.096    224.7644 
4    102.000     21.155    210.000      2.014    150.000     15.429    162.000     14.763    275.8889 
4    108.000     19.723    216.000      1.065    156.000     15.096    168.000     13.623    310.8412 
4    114.000     18.726    222.000      0.415    162.000     14.763    174.000     12.474    275.5971 
4    120.000     17.899    228.000      0.186    168.000     13.623    180.000     10.772    291.1095 
4    123.000     17.566    231.000      0.071    171.000     13.049    183.000      9.680    309.3966 
4    126.000     17.233    234.000      0.000    174.000     12.474    186.000      8.588    409.2781 
4    129.000     16.900    237.000      0.000    177.000     11.864    189.000      7.496    457.6680 
4    132.000     16.567    240.000      0.000    180.000     10.772    192.000      6.407    478.1092 
4      0.000     38.050    234.000      0.000     54.000     33.388     72.000     28.980    323.1840 
4      0.000     38.050    234.000      0.000    162.000     14.763    180.000     10.772    478.0688 
4      6.000     38.231    240.000      0.000     60.000     33.292     78.000     27.561    328.2590 
4      6.000     38.231    240.000      0.000    168.000     13.623    186.000      8.588    579.7438 
4      0.000     38.050    216.000      1.065    144.000     15.808    162.000     14.763    399.6856 
4      0.000     38.050    216.000      1.065     54.000     33.388     72.000     28.980    327.3827 
4      6.000     38.231    222.000      0.415    150.000     15.429    168.000     13.623    489.3831 
4      6.000     38.231    222.000      0.415     60.000     33.292     78.000     27.561    338.7259 
4     12.000     38.412    228.000      0.186     66.000     31.548     84.000     26.311    349.6259 
4     12.000     38.412    228.000      0.186    156.000     15.096    174.000     12.474    471.8640 
4     18.000     38.593    234.000      0.000     72.000     28.980     90.000     24.876    261.2626 
4     18.000     38.593    234.000      0.000    162.000     14.763    180.000     10.772    470.7857 
4     24.000     38.775    240.000      0.000    168.000     13.623    186.000      8.588    568.4960 
4     24.000     38.775    240.000      0.000     78.000     27.561     96.000     23.015    318.4230 
4      0.000     38.050    198.000      4.404    126.000     17.233    144.000     15.808    375.1217 
4      0.000     38.050    198.000      4.404     54.000     33.388     72.000     28.980    326.7602 
4      6.000     38.231    204.000      2.964     60.000     33.292     78.000     27.561    337.8509 
4      6.000     38.231    204.000      2.964    132.000     16.567    150.000     15.429    351.6406 
4     12.000     38.412    210.000      2.014     66.000     31.548     84.000     26.311    350.4705 
4     12.000     38.412    210.000      2.014    138.000     16.186    156.000     15.096    361.5689 
4     18.000     38.593    216.000      1.065     72.000     28.980     90.000     24.876    268.4984 
4     18.000     38.593    216.000      1.065    144.000     15.808    162.000     14.763    391.2798 
4     24.000     38.775    222.000      0.415     78.000     27.561     96.000     23.015    331.0387 
4     24.000     38.775    222.000      0.415    150.000     15.429    168.000     13.623    477.6532 
4     30.000     38.956    228.000      0.186    156.000     15.096    174.000     12.474    460.2634 
4     36.000     36.829    234.000      0.000    162.000     14.763    180.000     10.772    458.8261 
4     36.000     36.829    234.000      0.000     90.000     24.876    108.000     19.723    317.0153 
4     42.000     34.647    240.000      0.000    168.000     13.623    186.000      8.588    553.0355 
4     42.000     34.647    240.000      0.000     96.000     23.015    114.000     18.726    261.4012 
4      0.000     38.050    162.000     14.763     54.000     33.388     72.000     28.980    303.5539 
4      6.000     38.231    168.000     13.623     96.000     23.015    114.000     18.726    308.9806 
4      6.000     38.231    168.000     13.623     60.000     33.292     78.000     27.561    306.8596 
4     12.000     38.412    174.000     12.474     66.000     31.548     84.000     26.311    334.5555 
4     12.000     38.412    174.000     12.474    102.000     21.155    120.000     17.899    426.6277 
4     18.000     38.593    180.000     10.772     72.000     28.980     90.000     24.876    305.8097 
4     18.000     38.593    180.000     10.772    108.000     19.723    126.000     17.233    553.3145 
4     24.000     38.775    186.000      8.588    114.000     18.726    132.000     16.567    312.2504 
4     24.000     38.775    186.000      8.588     78.000     27.561     96.000     23.015    317.0839 
4     30.000     38.956    192.000      6.407    120.000     17.899    138.000     16.186    317.9117 
4     36.000     36.829    198.000      4.404    126.000     17.233    144.000     15.808    347.0822 
4     36.000     36.829    198.000      4.404     90.000     24.876    108.000     19.723    312.7710 
4     42.000     34.647    204.000      2.964    132.000     16.567    150.000     15.429    324.4805 
4     42.000     34.647    204.000      2.964     96.000     23.015    114.000     18.726    257.7611 
4     48.000     33.483    210.000      2.014    138.000     16.186    156.000     15.096    329.2683 
4     48.000     33.483    210.000      2.014    102.000     21.155    120.000     17.899    270.5020 
4     54.000     33.388    216.000      1.065    144.000     15.808    162.000     14.763    353.4347 
4     54.000     33.388    216.000      1.065    108.000     19.723    126.000     17.233    304.0706 
4     60.000     33.292    222.000      0.415    114.000     18.726    132.000     16.567    471.4598 
4     60.000     33.292    222.000      0.415    150.000     15.429    168.000     13.623    423.2978 
4     66.000     31.548    228.000      0.186    120.000     17.899    138.000     16.186    306.7365 
4     66.000     31.548    228.000      0.186    156.000     15.096    174.000     12.474    414.7603 
4     72.000     28.980    234.000      0.000    162.000     14.763    180.000     10.772    413.9925 
4     72.000     28.980    234.000      0.000    126.000     17.233    144.000     15.808    312.4113 
4     78.000     27.561    240.000      0.000    168.000     13.623    186.000      8.588    497.0802 
4     78.000     27.561    240.000      0.000    132.000     16.567    150.000     15.429    274.9971 
4      0.000     38.050    180.000     10.772    108.000     19.723    126.000     17.233    573.9457 
4      0.000     38.050    180.000     10.772     54.000     33.388     72.000     28.980    312.4091 
4      6.000     38.231    186.000      8.588    114.000     18.726    132.000     16.567    326.8451 
4      6.000     38.231    186.000      8.588     60.000     33.292     78.000     27.561    329.0396 
4     12.000     38.412    192.000      6.407    120.000     17.899    138.000     16.186    333.2039 
4     12.000     38.412    192.000      6.407     66.000     31.548     84.000     26.311    343.1242 
4     18.000     38.593    198.000      4.404    126.000     17.233    144.000     15.808    364.5566 
4     18.000     38.593    198.000      4.404     72.000     28.980     90.000     24.876    268.1055 
4     24.000     38.775    204.000      2.964    132.000     16.567    150.000     15.429    341.8311 
4     24.000     38.775    204.000      2.964     78.000     27.561     96.000     23.015    330.1290 
4     30.000     38.956    210.000      2.014    138.000     16.186    156.000     15.096    349.3352 
4     36.000     36.829    216.000      1.065    144.000     15.808    162.000     14.763    377.7175 
4     36.000     36.829    216.000      1.065     90.000     24.876    108.000     19.723    322.0138 
4     42.000     34.647    222.000      0.415     96.000     23.015    114.000     18.726    274.9488 
4     42.000     34.647    222.000      0.415    150.000     15.429    168.000     13.623    460.0524 
4     48.000     33.483    228.000      0.186    102.000     21.155    120.000     17.899    237.8348 
4     48.000     33.483    228.000      0.186    156.000     15.096    174.000     12.474    441.4004 
4     54.000     33.388    234.000      0.000    162.000     14.763    180.000     10.772    439.5320 
4     54.000     33.388    234.000      0.000    108.000     19.723    126.000     17.233    300.1391 
4     60.000     33.292    240.000      0.000    168.000     13.623    186.000      8.588    528.3291 
4      0.000     38.050    162.000     14.763     72.000     28.980     90.000     24.876    325.1175 
4      6.000     38.231    168.000     13.623     78.000     27.561     96.000     23.015    351.3753 
4     12.000     38.412    174.000     12.474     84.000     26.311    102.000     21.155    354.2367 
4     18.000     38.593    180.000     10.772     90.000     24.876    108.000     19.723    457.3328 
4     24.000     38.775    186.000      8.588     96.000     23.015    114.000     18.726    342.4169 
4     30.000     38.956    192.000      6.407    102.000     21.155    120.000     17.899    646.8964 
4     36.000     36.829    198.000      4.404    108.000     19.723    126.000     17.233    348.6904 
4     42.000     34.647    204.000      2.964    114.000     18.726    132.000     16.567    402.2171 
4     48.000     33.483    210.000      2.014    120.000     17.899    138.000     16.186    389.0842 
4     54.000     33.388    216.000      1.065    126.000     17.233    144.000     15.808    372.5098 
4     60.000     33.292    222.000      0.415    132.000     16.567    150.000     15.429    328.9945 
4     66.000     31.548    228.000      0.186    138.000     16.186    156.000     15.096    343.1124 
4     72.000     28.980    234.000      0.000    144.000     15.808    162.000     14.763    356.7373 
4     78.000     27.561    240.000      0.000    150.000     15.429    168.000     13.623    409.6928 
4      0.000     38.050    180.000     10.772     90.000     24.876    108.000     19.723    507.7831 
4      0.000     38.050    180.000     10.772     72.000     28.980     90.000     24.876    372.3607 
4      6.000     38.231    186.000      8.588     96.000     23.015    114.000     18.726    380.5458 
4      6.000     38.231    186.000      8.588     78.000     27.561     96.000     23.015    397.2350 
4     12.000     38.412    192.000      6.407     84.000     26.311    102.000     21.155    398.0424 
4     12.000     38.412    192.000      6.407    102.000     21.155    120.000     17.899    393.2476 
4     18.000     38.593    198.000      4.404     90.000     24.876    108.000     19.723    450.7128 
4     18.000     38.593    198.000      4.404    108.000     19.723    126.000     17.233    390.5061 
4     24.000     38.775    204.000      2.964    114.000     18.726    132.000     16.567    393.5217 
4     24.000     38.775    204.000      2.964     96.000     23.015    114.000     18.726    384.6418 
4     30.000     38.956    210.000      2.014    102.000     21.155    120.000     17.899    694.5931 
4     30.000     38.956    210.000      2.014    120.000     17.899    138.000     16.186    402.6853 
4     36.000     36.829    216.000      1.065    126.000     17.233    144.000     15.808    426.7588 
4     36.000     36.829    216.000      1.065    108.000     19.723    126.000     17.233    382.7662 
4     42.000     34.647    222.000      0.415    132.000     16.567    150.000     15.429    391.7534 
4     42.000     34.647    222.000      0.415    114.000     18.726    132.000     16.567    420.0544 
4     48.000     33.483    228.000      0.186    138.000     16.186    156.000     15.096    393.5991 
4     48.000     33.483    228.000      0.186    120.000     17.899    138.000     16.186    466.5605 
4     54.000     33.388    234.000      0.000    144.000     15.808    162.000     14.763    405.4892 
4     54.000     33.388    234.000      0.000    126.000     17.233    144.000     15.808    388.4391 
4     60.000     33.292    240.000      0.000    150.000     15.429    168.000     13.623    464.4433 
4     60.000     33.292    240.000      0.000    132.000     16.567    150.000     15.429    339.2581 
4      0.000     38.050    198.000      4.404     72.000     28.980     90.000     24.876    397.9210 
4      0.000     38.050    198.000      4.404    108.000     19.723    126.000     17.233    417.1880 
4      6.000     38.231    204.000      2.964     78.000     27.561     96.000     23.015    426.5150 
4      6.000     38.231    204.000      2.964    114.000     18.726    132.000     16.567    425.3689 
4     12.000     38.412    210.000      2.014    120.000     17.899    138.000     16.186    436.4718 
4     12.000     38.412    210.000      2.014     84.000     26.311    102.000     21.155    429.5796 
4     18.000     38.593    216.000      1.065    126.000     17.233    144.000     15.808    462.7582 
4     18.000     38.593    216.000      1.065     90.000     24.876    108.000     19.723    481.2207 
4     24.000     38.775    222.000      0.415    132.000     16.567    150.000     15.429    424.8050 
4     24.000     38.775    222.000      0.415     96.000     23.015    114.000     18.726    402.0949 
4     30.000     38.956    228.000      0.186    138.000     16.186    156.000     15.096    431.1915 
4     36.000     36.829    234.000      0.000    144.000     15.808    162.000     14.763    446.3719 
4     36.000     36.829    234.000      0.000    108.000     19.723    126.000     17.233    390.1125 
4     42.000     34.647    240.000      0.000    150.000     15.429    168.000     13.623    511.5952 
4     42.000     34.647    240.000      0.000    114.000     18.726    132.000     16.567    414.9968 
4      0.000     38.050    234.000      0.000     72.000     28.980     90.000     24.876    409.1401 
4      0.000     38.050    234.000      0.000    144.000     15.808    162.000     14.763    491.4376 
4      6.000     38.231    240.000      0.000    150.000     15.429    168.000     13.623    563.7157 
4      6.000     38.231    240.000      0.000     78.000     27.561     96.000     23.015    422.2769 
4      0.000     38.050    216.000      1.065     72.000     28.980     90.000     24.876    412.5260 
4      0.000     38.050    216.000      1.065    126.000     17.233    144.000     15.808    487.1407 
4      6.000     38.231    222.000      0.415    132.000     16.567    150.000     15.429    448.7116 
4      6.000     38.231    222.000      0.415     78.000     27.561     96.000     23.015    436.1948 
4     12.000     38.412    228.000      0.186     84.000     26.311    102.000     21.155    437.5065 
4     12.000     38.412    228.000      0.186    138.000     16.186    156.000     15.096    456.0151 
4     18.000     38.593    234.000      0.000    144.000     15.808    162.000     14.763    473.1205 
4     18.000     38.593    234.000      0.000     90.000     24.876    108.000     19.723    486.8790 
4     24.000     38.775    240.000      0.000     96.000     23.015    114.000     18.726    390.8522 
4     24.000     38.775    240.000      0.000    150.000     15.429    168.000     13.623    542.1183 
4      0.000     38.050    198.000      4.404     90.000     24.876    108.000     19.723    447.9706 
4      6.000     38.231    204.000      2.964     96.000     23.015    114.000     18.726    441.6886 
4     12.000     38.412    210.000      2.014    102.000     21.155    120.000     17.899    450.4271 
4     18.000     38.593    216.000      1.065    108.000     19.723    126.000     17.233    444.7321 
4     24.000     38.775    222.000      0.415    114.000     18.726    132.000     16.567    441.5767 
4     30.000     38.956    228.000      0.186    120.000     17.899    138.000     16.186    449.2260 
4     36.000     36.829    234.000      0.000    126.000     17.233    144.000     15.808    461.5186 
4     42.000     34.647    240.000      0.000    132.000     16.567    150.000     15.429    402.1934 
4      0.000     38.050    216.000      1.065    108.000     19.723    126.000     17.233    489.2630 
4      0.000     38.050    216.000      1.065     90.000     24.876    108.000     19.723    486.1478 
4      6.000     38.231    222.000      0.415    114.000     18.726    132.000     16.567    492.2971 
4      6.000     38.231    222.000      0.415     96.000     23.015    114.000     18.726    475.9648 
4     12.000     38.412    228.000      0.186    102.000     21.155    120.000     17.899    481.2136 
4     12.000     38.412    228.000      0.186    120.000     17.899    138.000     16.186    500.5722 
4     18.000     38.593    234.000      0.000    108.000     19.723    126.000     17.233    464.4478 
4     18.000     38.593    234.000      0.000    126.000     17.233    144.000     15.808    513.5043 
4     24.000     38.775    240.000      0.000    114.000     18.726    132.000     16.567    442.5815 
4     24.000     38.775    240.000      0.000    132.000     16.567    150.000     15.429    449.0357 
4      0.000     38.050    234.000      0.000     90.000     24.876    108.000     19.723    496.0550 
4      0.000     38.050    234.000      0.000    126.000     17.233    144.000     15.808    552.1480 
4      6.000     38.231    240.000      0.000    132.000     16.567    150.000     15.429    481.5242 
4      6.000     38.231    240.000      0.000     96.000     23.015    114.000     18.726    468.6437 
4      0.000     38.050    234.000      0.000    108.000     19.723    126.000     17.233    521.6523 
4      6.000     38.231    240.000      0.000    114.000     18.726    132.000     16.567    501.6853 
0
0
0
0
0
0
0
